 PMK18    CELL:    8.37292   8.37292   8.37292   90.0000   90.0000   90.0000   SPGR: F d -3 m               TEMP:      0.00
  1   2461     1.54056     1.54443     0.00000     0.00000     0.00000    0
    30     0     0
 2Theta	Yobs	Ycal	Yobs-Ycal	Backg	Posr	(hkl)	K
     15.0210	 5151.00	 5045.82	-2050.84	 4324.60
     15.0470	 5178.00	 5048.22	-2026.24	 4326.68
     15.0730	 5157.00	 5050.63	-2049.65	 4328.77
     15.0990	 5162.00	 5053.04	-2047.06	 4330.86
     15.1250	 5045.00	 5055.46	-2166.48	 4332.95
     15.1510	 5167.00	 5057.89	-2046.91	 4335.04
     15.1770	 5203.00	 5060.32	-2013.34	 4337.13
     15.2030	 5125.00	 5062.76	-2093.78	 4339.21
     15.2290	 5160.00	 5065.21	-2061.23	 4341.30
     15.2550	 5166.00	 5067.67	-2057.69	 4343.39
     15.2810	 5236.00	 5070.13	-1990.15	 4345.48
     15.3070	 5251.00	 5072.60	-1977.62	 4347.57
     15.3330	 5161.00	 5075.08	-2070.10	 4349.66
     15.3590	 5151.00	 5077.57	-2082.59	 4351.74
     15.3850	 5083.00	 5080.07	-2153.09	 4353.83
     15.4110	 5179.00	 5082.57	-2059.59	 4355.92
     15.4370	 5238.00	 5085.08	-2003.10	 4358.01
     15.4630	 5142.00	 5087.61	-2101.63	 4360.10
     15.4890	 5221.00	 5090.14	-2025.16	 4362.19
     15.5150	 5338.00	 5092.68	-1910.70	 4364.27
     15.5410	 5163.00	 5095.24	-2088.26	 4366.36
     15.5670	 5325.00	 5097.80	-1928.82	 4368.45
     15.5930	 5061.00	 5100.37	-2195.39	 4370.54
     15.6190	 5218.00	 5102.96	-2040.98	 4372.63
     15.6450	 5190.00	 5105.56	-2071.58	 4374.72
     15.6710	 5169.00	 5108.17	-2095.19	 4376.80
     15.6970	 5148.00	 5110.79	-2118.81	 4378.89
     15.7230	 5155.00	 5113.42	-2114.44	 4380.98
     15.7490	 5133.00	 5116.07	-2139.09	 4383.07
     15.7750	 5199.00	 5118.73	-2075.75	 4385.16
     15.8010	 5197.00	 5121.41	-2080.43	 4387.25
     15.8270	 5103.00	 5124.09	-2177.11	 4389.33
     15.8530	 5168.00	 5126.80	-2114.82	 4391.42
     15.8790	 5190.00	 5129.52	-2095.54	 4393.51
     15.9050	 5321.00	 5132.25	-1967.27	 4395.60
     15.9310	 5172.00	 5135.41	-2119.43	 4397.69
     15.9570	 5091.00	 5138.18	-2203.20	 4399.78
     15.9830	 5284.00	 5140.96	-2012.98	 4401.86
     16.0090	 5166.00	 5143.77	-2133.79	 4403.95
     16.0350	 5230.00	 5146.59	-2072.61	 4406.04
     16.0610	 5325.00	 5149.64	-1980.66	 4408.13
     16.0870	 5221.00	 5153.82	-2088.84	 4411.54
     16.1130	 5216.00	 5159.51	-2099.53	 4416.43
     16.1390	 5249.00	 5165.21	-2072.23	 4421.31
     16.1650	 5274.00	 5170.94	-2052.96	 4426.20
     16.1910	 5142.00	 5176.69	-2190.71	 4431.09
     16.2170	 5173.00	 5182.47	-2165.49	 4435.97
     16.2430	 5281.00	 5188.27	-2063.29	 4440.86
     16.2690	 5189.00	 5194.10	-2161.12	 4445.75
     16.2950	 5160.00	 5199.95	-2195.97	 4450.63
     16.3210	 5274.00	 5205.83	-2087.85	 4455.52
     16.3470	 5224.00	 5211.74	-2143.76	 4460.41
     16.3730	 5254.00	 5217.68	-2119.70	 4465.29
     16.3990	 5314.00	 5223.65	-2065.67	 4470.18
     16.4250	 5190.00	 5229.66	-2195.68	 4475.07
     16.4510	 5313.00	 5235.69	-2078.71	 4479.95
     16.4770	 5341.00	 5241.77	-2056.79	 4484.84
     16.5030	 5305.00	 5247.87	-2098.89	 4489.73
     16.5290	 5394.00	 5254.02	-2016.04	 4494.61
     16.5550	 5384.00	 5260.20	-2032.22	 4499.50
     16.5810	 5241.00	 5266.43	-2181.45	 4504.39
     16.6070	 5205.00	 5272.69	-2223.71	 4509.27
     16.6330	 5148.00	 5279.00	-2287.02	 4514.16
     16.6590	 5208.00	 5285.36	-2233.38	 4519.05
     16.6850	 5366.00	 5291.76	-2081.78	 4523.93
     16.7110	 5354.00	 5298.21	-2100.23	 4528.82
     16.7370	 5334.00	 5304.70	-2126.72	 4533.71
     16.7630	 5393.00	 5311.26	-2074.28	 4538.59
     16.7890	 5344.00	 5317.86	-2129.88	 4543.48
     16.8150	 5322.00	 5324.52	-2158.54	 4548.37
     16.8410	 5415.00	 5331.24	-2072.26	 4553.25
     16.8670	 5426.00	 5338.02	-2068.04	 4558.14
     16.8930	 5433.00	 5344.87	-2067.89	 4563.02
     16.9190	 5411.00	 5353.40	-2098.42	 4569.54
     16.9450	 5290.00	 5365.06	-2231.08	 4579.11
     16.9710	 5356.00	 5376.80	-2176.82	 4588.69
     16.9970	 5527.00	 5388.60	-2017.62	 4598.26
     17.0230	 5487.00	 5400.48	-2069.50	 4607.84
     17.0490	 5428.00	 5412.44	-2140.46	 4617.41
     17.0750	 5432.00	 5424.48	-2148.50	 4626.99
     17.1010	 5367.00	 5436.60	-2225.62	 4636.57
     17.1270	 5485.00	 5448.80	-2119.82	 4646.14
     17.1530	 5541.00	 5461.09	-2076.11	 4655.72
     17.1790	 5520.00	 5473.47	-2109.49	 4665.29
     17.2050	 5622.00	 5485.95	-2019.97	 4674.87
     17.2310	 5520.00	 5498.52	-2134.54	 4684.45
     17.2570	 5556.00	 5511.18	-2111.20	 4694.02
     17.2830	 5526.00	 5523.94	-2153.96	 4703.60
     17.3090	 5539.00	 5536.81	-2153.83	 4713.17
     17.3350	 5569.00	 5549.78	-2136.80	 4722.75
     17.3610	 5587.00	 5562.85	-2131.87	 4732.33
     17.3870	 5583.00	 5576.03	-2149.05	 4741.90
     17.4130	 5547.00	 5589.32	-2198.34	 4751.48
     17.4390	 5569.00	 5602.71	-2189.73	 4761.05
     17.4650	 5554.00	 5616.22	-2218.24	 4770.63
     17.4910	 5556.00	 5629.83	-2229.85	 4780.21
     17.5170	 5621.00	 5643.55	-2178.57	 4789.78
     17.5430	 5667.00	 5657.37	-2146.39	 4799.36
     17.5690	 5550.00	 5671.29	-2277.31	 4808.93
     17.5950	 5689.00	 5685.32	-2152.34	 4818.51
     17.6210	 5794.00	 5699.44	-2061.46	 4828.09
     17.6470	 5628.00	 5713.65	-2241.67	 4837.66
     17.6730	 5633.00	 5727.94	-2250.96	 4847.24
     17.6990	 5639.00	 5742.31	-2259.33	 4856.81
     17.7250	 5714.00	 5756.75	-2198.77	 4866.39
     17.7510	 5632.00	 5771.24	-2295.26	 4875.97
     17.7770	 5606.00	 5785.77	-2335.79	 4885.54
     17.8030	 5767.00	 5798.63	-2187.65	 4893.42
     17.8290	 5796.00	 5809.82	-2169.84	 4899.60
     17.8550	 5813.00	 5820.99	-2164.01	 4905.78
     17.8810	 5772.00	 5832.14	-2216.16	 4911.96
     17.9070	 5676.00	 5843.25	-2323.27	 4918.14
     17.9330	 5737.00	 5854.30	-2273.32	 4924.32
     17.9590	 5729.00	 5865.25	-2292.27	 4930.50
     17.9850	 5749.00	 5876.09	-2283.11	 4936.67
     18.0110	 5644.00	 5886.78	-2398.80	 4942.85
     18.0370	 5800.00	 5897.31	-2253.33	 4949.03
     18.0630	 5694.00	 5907.64	-2369.66	 4955.21
     18.0890	 5740.00	 5917.74	-2333.76	 4961.39
     18.1150	 5792.00	 5927.58	-2291.60	 4967.57
     18.1410	 5786.00	 5937.15	-2307.17	 4973.75
     18.1670	 5734.00	 5946.40	-2368.42	 4979.93
     18.1930	 5741.00	 5955.32	-2370.34	 4986.11
     18.2190	 5916.00	 5963.89	-2203.91	 4992.29
     18.2450	 5814.00	 5972.07	-2314.09	 4998.47
     18.2710	 5707.00	 5979.86	-2428.88	 5004.65
     18.2970	 5751.00	 5987.24	-2392.26	 5010.83
     18.3230	 5750.00	 5994.20	-2400.22	 5017.01
     18.3490	 5808.00	 6000.73	-2348.75	 5023.19
     18.3750	 5972.00	 6006.83	-2190.85	 5029.36
     18.4010	 5849.00	 6012.50	-2319.52	 5035.54
     18.4270	 5953.00	 6017.75	-2220.77	 5041.72
     18.4530	 5919.00	 6022.59	-2259.61	 5047.90
     18.4790	 5797.00	 6027.02	-2386.04	 5054.08
     18.5050	 5915.00	 6031.07	-2272.09	 5060.26
     18.5310	 5993.00	 6034.76	-2197.78	 5066.44
     18.5570	 5938.00	 6038.11	-2256.13	 5072.62
     18.5830	 5869.00	 6041.14	-2328.16	 5078.80
     18.6090	 5955.00	 6043.88	-2244.90	 5084.98
     18.6350	 5962.00	 6046.35	-2240.37	 5091.16
     18.6610	 5943.00	 6048.59	-2261.61	 5097.34
     18.6870	 5824.00	 6050.63	-2382.65	 5103.52
     18.7130	 5946.00	 6052.48	-2262.50	 5109.70
     18.7390	 5878.00	 6054.19	-2332.21	 5115.88
     18.7650	 5829.00	 6055.77	-2382.79	 5122.06
     18.7910	 5858.00	 6057.26	-2355.28	 5128.23
     18.8170	 5929.00	 6058.67	-2285.69	 5134.41
     18.8430	 5932.00	 6060.03	-2284.05	 5140.59
     18.8690	 5949.00	 6061.36	-2268.38	 5146.77
     18.8950	 6018.00	 6062.69	-2200.71	 5152.95
     18.9210	 6197.00	 6064.02	-2023.04	 5159.13
     18.9470	 6108.00	 6065.38	-2113.40	 5165.31
     18.9730	 6088.00	 6066.77	-2134.79	 5171.49
     18.9990	 6074.00	 6068.22	-2150.24	 5177.67
     19.0250	 6038.00	 6069.73	-2187.75	 5183.85
     19.0510	 6025.00	 6071.32	-2202.34	 5190.03
     19.0770	 6076.00	 6072.99	-2153.01	 5196.21
     19.1030	 6029.00	 6074.74	-2201.76	 5202.39
     19.1290	 6021.00	 6076.59	-2211.61	 5208.57
     19.1550	 5972.00	 6075.19	-2259.21	 5211.40
     19.1810	 5988.00	 6073.39	-2241.41	 5213.73
     19.2070	 5882.00	 6071.69	-2345.71	 5216.06
     19.2330	 5923.00	 6070.10	-2303.12	 5218.39
     19.2590	 5979.00	 6068.62	-2245.64	 5220.72
     19.2850	 6037.00	 6067.25	-2186.27	 5223.05
     19.3110	 6020.00	 6065.98	-2202.00	 5225.38
     19.3370	 5936.00	 6064.83	-2284.85	 5227.71
     19.3630	 6015.00	 6063.77	-2204.79	 5230.04
     19.3890	 6004.00	 6062.83	-2214.85	 5232.38
     19.4150	 6006.00	 6061.99	-2212.01	 5234.71
     19.4410	 6058.00	 6061.25	-2159.27	 5237.04
     19.4670	 6132.00	 6060.61	-2084.63	 5239.37
     19.4930	 6151.00	 6060.07	-2065.09	 5241.70
     19.5190	 6076.00	 6059.63	-2139.65	 5244.03
     19.5450	 6183.00	 6059.27	-2032.29	 5246.36
     19.5710	 6228.00	 6059.01	-1987.03	 5248.69
     19.5970	 6175.00	 6058.84	-2039.86	 5251.02
     19.6230	 6162.00	 6058.75	-2052.77	 5253.35
     19.6490	 6116.00	 6058.75	-2098.77	 5255.68
     19.6750	 6062.00	 6058.83	-2152.85	 5258.01
     19.7010	 5978.00	 6058.98	-2237.00	 5260.34
     19.7270	 6050.00	 6059.21	-2165.23	 5262.67
     19.7530	 6123.00	 6059.51	-2092.53	 5265.00
     19.7790	 6093.00	 6059.89	-2122.91	 5267.33
     19.8050	 6127.00	 6060.33	-2089.35	 5269.66
     19.8310	 6095.00	 6060.84	-2121.86	 5271.99
     19.8570	 6008.00	 6061.41	-2209.43	 5274.33
     19.8830	 6024.00	 6062.04	-2194.06	 5276.66
     19.9090	 6023.00	 6062.74	-2195.76	 5278.99
     19.9350	 6059.00	 6063.49	-2160.51	 5281.32
     19.9610	 6011.00	 6064.29	-2209.31	 5283.65
     19.9870	 6018.00	 6065.15	-2203.17	 5285.98
     20.0130	 6072.00	 6066.06	-2150.08	 5288.31
     20.0390	 5982.00	 6067.01	-2241.03	 5290.64
     20.0650	 6007.00	 6068.02	-2217.04	 5292.97
     20.0910	 6087.00	 6069.07	-2138.09	 5295.30
     20.1170	 6121.00	 6070.17	-2105.19	 5297.63
     20.1430	 6008.00	 6071.31	-2219.33	 5299.96
     20.1690	 6029.00	 6072.49	-2199.51	 5302.29
     20.1950	 6033.00	 6073.70	-2196.72	 5304.62
     20.2210	 6087.00	 6074.96	-2143.98	 5306.95
     20.2470	 6016.00	 6076.26	-2216.28	 5309.28
     20.2730	 6115.00	 6077.59	-2118.61	 5311.61
     20.2990	 6048.00	 6078.95	-2186.97	 5313.94
     20.3250	 6012.00	 6080.35	-2224.37	 5316.27
     20.3510	 6149.00	 6081.78	-2088.80	 5318.61
     20.3770	 6108.00	 6083.87	-2131.89	 5320.94
     20.4030	 6179.00	 6085.36	-2062.38	 5323.27
     20.4290	 6028.00	 6086.88	-2214.90	 5325.60
     20.4550	 5981.00	 6088.43	-2263.45	 5327.93
     20.4810	 6130.00	 6090.00	-2116.02	 5330.26
     20.5070	 6107.00	 6091.60	-2140.62	 5332.59
     20.5330	 6092.00	 6093.54	-2157.56	 5334.92
     20.5590	 5996.00	 6095.19	-2255.21	 5337.25
     20.5850	 6097.00	 6096.86	-2155.88	 5339.58
     20.6110	 5978.00	 6098.55	-2276.57	 5341.91
     20.6370	 6041.00	 6100.27	-2215.29	 5344.24
     20.6630	 6090.00	 6102.00	-2168.02	 5346.57
     20.6890	 6058.00	 6103.76	-2201.78	 5348.90
     20.7150	 6083.00	 6105.54	-2178.56	 5351.23
     20.7410	 6240.00	 6107.34	-2023.36	 5353.56
     20.7670	 6146.00	 6109.15	-2119.17	 5355.89
     20.7930	 6108.00	 6110.98	-2159.00	 5358.23
     20.8190	 6338.00	 6112.83	-1930.85	 5360.56
     20.8450	 6230.00	 6114.70	-2040.72	 5362.89
     20.8710	 6139.00	 6116.58	-2133.60	 5365.22
     20.8970	 6168.00	 6118.48	-2106.50	 5367.55
     20.9230	 6191.00	 6120.40	-2085.42	 5369.88
     20.9490	 6280.00	 6122.32	-1998.34	 5372.21
     20.9750	 6325.00	 6124.27	-1955.29	 5374.54
     21.0010	 6108.00	 6126.39	-2174.41	 5377.04
     21.0270	 6336.00	 6129.40	-1949.42	 5380.40
     21.0530	 6162.00	 6132.42	-2126.44	 5383.77
     21.0790	 6144.00	 6135.45	-2147.47	 5387.14
     21.1050	 6230.00	 6138.49	-2064.51	 5390.50
     21.1310	 6304.00	 6141.55	-1993.57	 5393.87
     21.1570	 6098.00	 6144.62	-2202.64	 5397.24
     21.1830	 6159.00	 6147.70	-2144.72	 5400.60
     21.2090	 6189.00	 6150.79	-2117.81	 5403.97
     21.2350	 6262.00	 6153.89	-2047.91	 5407.33
     21.2610	 6321.00	 6157.00	-1992.02	 5410.70
     21.2870	 6292.00	 6160.13	-2024.15	 5414.07
     21.3130	 6280.00	 6163.26	-2039.28	 5417.43
     21.3390	 6291.00	 6166.40	-2031.42	 5420.80
     21.3650	 6342.00	 6169.55	-1983.57	 5424.17
     21.3910	 6323.00	 6172.71	-2005.73	 5427.53
     21.4170	 6179.00	 6175.88	-2152.90	 5430.90
     21.4430	 6202.00	 6179.06	-2133.08	 5434.27
     21.4690	 6310.00	 6182.25	-2028.27	 5437.63
     21.4950	 6274.00	 6185.44	-2067.46	 5441.00
     21.5210	 6266.00	 6188.65	-2078.67	 5444.36
     21.5470	 6342.00	 6191.86	-2005.88	 5447.73
     21.5730	 6310.00	 6195.08	-2041.10	 5451.10
     21.5990	 6341.00	 6198.31	-2013.33	 5454.46
     21.6250	 6298.00	 6201.54	-2059.56	 5457.83
     21.6510	 6270.00	 6204.78	-2090.80	 5461.20
     21.6770	 6404.00	 6208.03	-1960.05	 5464.56
     21.7030	 6420.00	 6211.29	-1947.31	 5467.93
     21.7290	 6368.00	 6214.55	-2002.57	 5471.29
     21.7550	 6333.00	 6217.82	-2040.84	 5474.66
     21.7810	 6389.00	 6221.09	-1988.11	 5478.03
     21.8070	 6396.00	 6224.38	-1984.40	 5481.39
     21.8330	 6401.00	 6227.66	-1982.68	 5484.76
     21.8590	 6336.00	 6230.96	-2050.98	 5488.13
     21.8850	 6274.00	 6234.26	-2116.28	 5491.49
     21.9110	 6295.00	 6237.57	-2098.59	 5494.86
     21.9370	 6305.00	 6240.88	-2091.90	 5498.23
     21.9630	 6294.00	 6244.20	-2106.22	 5501.59
     21.9890	 6268.00	 6247.52	-2135.54	 5504.96
     22.0150	 6279.00	 6250.85	-2127.87	 5508.33
     22.0410	 6362.00	 6254.18	-2048.20	 5511.69
     22.0670	 6443.00	 6257.52	-1970.54	 5515.06
     22.0930	 6359.00	 6260.87	-2057.89	 5518.42
     22.1190	 6303.00	 6264.22	-2117.24	 5521.79
     22.1450	 6437.00	 6267.57	-1986.59	 5525.16
     22.1710	 6470.00	 6270.93	-1956.95	 5528.52
     22.1970	 6375.00	 6274.30	-2055.32	 5531.89
     22.2230	 6342.00	 6277.67	-2091.69	 5535.26
     22.2490	 6428.00	 6281.04	-2009.06	 5538.62
     22.2750	 6483.00	 6284.42	-1957.44	 5541.99
     22.3010	 6411.00	 6287.81	-2032.83	 5545.35
     22.3270	 6351.00	 6291.20	-2096.22	 5548.72
     22.3530	 6320.00	 6294.59	-2130.61	 5552.09
     22.3790	 6363.00	 6297.99	-2091.01	 5555.45
     22.4050	 6455.00	 6301.39	-2002.41	 5558.82
     22.4310	 6506.00	 6304.80	-1954.82	 5562.19
     22.4570	 6424.00	 6308.21	-2040.23	 5565.55
     22.4830	 6434.00	 6311.63	-2033.65	 5568.92
     22.5090	 6411.00	 6315.04	-2060.06	 5572.29
     22.5350	 6349.00	 6318.47	-2125.49	 5575.65
     22.5610	 6396.00	 6321.90	-2081.92	 5579.02
     22.5870	 6439.00	 6325.33	-2042.35	 5582.38
     22.6130	 6408.00	 6328.77	-2076.79	 5585.75
     22.6390	 6360.00	 6332.21	-2128.23	 5589.12
     22.6650	 6330.00	 6335.65	-2161.67	 5592.48
     22.6910	 6504.00	 6339.10	-1991.12	 5595.85
     22.7170	 6495.00	 6342.55	-2003.57	 5599.22
     22.7430	 6423.00	 6346.01	-2079.03	 5602.58
     22.7690	 6447.00	 6347.73	-2056.75	 5604.21
     22.7950	 6358.00	 6347.47	-2145.49	 5603.85
     22.8210	 6436.00	 6347.21	-2067.23	 5603.49
     22.8470	 6384.00	 6346.95	-2118.97	 5603.13
     22.8730	 6380.00	 6346.70	-2122.72	 5602.77
     22.8990	 6441.00	 6346.45	-2061.47	 5602.41
     22.9250	 6371.00	 6346.21	-2131.23	 5602.04
     22.9510	 6255.00	 6345.97	-2246.99	 5601.68
     22.9770	 6428.00	 6345.73	-2073.75	 5601.32
     23.0030	 6505.00	 6345.50	-1996.52	 5600.96
     23.0290	 6411.00	 6345.27	-2090.29	 5600.60
     23.0550	 6407.00	 6345.04	-2094.06	 5600.23
     23.0810	 6493.00	 6344.82	-2007.84	 5599.87
     23.1070	 6358.00	 6344.60	-2142.62	 5599.51
     23.1330	 6324.00	 6344.38	-2176.40	 5599.15
     23.1590	 6566.00	 6344.17	-1934.19	 5598.79
     23.1850	 6415.00	 6343.96	-2084.98	 5598.43
     23.2110	 6313.00	 6343.76	-2186.78	 5598.06
     23.2370	 6322.00	 6343.56	-2177.58	 5597.70
     23.2630	 6263.00	 6343.36	-2236.38	 5597.34
     23.2890	 6419.00	 6343.17	-2080.19	 5596.98
     23.3150	 6455.00	 6342.98	-2044.00	 5596.62
     23.3410	 6374.00	 6342.79	-2124.81	 5596.25
     23.3670	 6422.00	 6342.61	-2076.63	 5595.89
     23.3930	 6529.00	 6342.43	-1969.45	 5595.53
     23.4190	 6476.00	 6342.26	-2022.28	 5595.17
     23.4450	 6352.00	 6342.09	-2146.11	 5594.81
     23.4710	 6348.00	 6341.92	-2149.94	 5594.45
     23.4970	 6470.00	 6341.76	-2027.78	 5594.08
     23.5230	 6555.00	 6341.60	-1942.62	 5593.72
     23.5490	 6432.00	 6341.44	-2065.46	 5593.36
     23.5750	 6339.00	 6341.29	-2158.31	 5593.00
     23.6010	 6513.00	 6341.14	-1984.16	 5592.64
     23.6270	 6590.00	 6341.00	-1907.02	 5592.28
     23.6530	 6408.00	 6340.86	-2088.88	 5591.91
     23.6790	 6433.00	 6340.72	-2063.74	 5591.55
     23.7050	 6451.00	 6340.59	-2045.61	 5591.19
     23.7310	 6539.00	 6340.46	-1957.48	 5590.83
     23.7570	 6377.00	 6340.33	-2119.35	 5590.47
     23.7830	 6533.00	 6340.21	-1963.23	 5590.10
     23.8090	 6485.00	 6340.09	-2011.11	 5589.74
     23.8350	 6387.00	 6339.98	-2109.00	 5589.38
     23.8610	 6357.00	 6339.87	-2138.89	 5589.02
     23.8870	 6415.00	 6339.76	-2080.78	 5588.66
     23.9130	 6450.00	 6339.66	-2045.68	 5588.30
     23.9390	 6345.00	 6339.56	-2150.58	 5587.93
     23.9650	 6469.00	 6339.47	-2026.49	 5587.57
     23.9910	 6380.00	 6339.38	-2115.40	 5587.21
     24.0170	 6367.00	 6339.30	-2128.32	 5586.85
     24.0430	 6480.00	 6339.21	-2015.23	 5586.49
     24.0690	 6449.00	 6339.14	-2046.16	 5586.12
     24.0950	 6506.00	 6339.06	-1989.08	 5585.76
     24.1210	 6367.00	 6339.00	-2128.02	 5585.40
     24.1470	 6406.00	 6338.93	-2088.95	 5585.04
     24.1730	 6409.00	 6338.87	-2085.89	 5584.68
     24.1990	 6363.00	 6338.82	-2131.84	 5584.32
     24.2250	 6271.00	 6338.77	-2223.79	 5583.95
     24.2510	 6337.00	 6338.72	-2157.74	 5583.59
     24.2770	 6399.00	 6338.68	-2095.70	 5583.23
     24.3030	 6436.00	 6338.64	-2058.66	 5582.87
     24.3290	 6414.00	 6338.61	-2080.63	 5582.51
     24.3550	 6356.00	 6338.58	-2138.60	 5582.15
     24.3810	 6390.00	 6338.56	-2104.58	 5581.78
     24.4070	 6309.00	 6338.54	-2185.56	 5581.42
     24.4330	 6304.00	 6338.53	-2190.55	 5581.06
     24.4590	 6389.00	 6338.52	-2105.54	 5580.70
     24.4850	 6426.00	 6338.51	-2068.53	 5580.34
     24.5110	 6417.00	 6338.52	-2077.54	 5579.97
     24.5370	 6338.00	 6338.52	-2156.54	 5579.61
     24.5630	 6343.00	 6338.53	-2151.55	 5579.25
     24.5890	 6383.00	 6337.96	-2110.98	 5578.30
     24.6150	 6378.00	 6336.75	-2114.77	 5576.70
     24.6410	 6361.00	 6335.54	-2130.56	 5575.11
     24.6670	 6317.00	 6334.34	-2173.36	 5573.51
     24.6930	 6245.00	 6333.14	-2244.16	 5571.91
     24.7190	 6282.00	 6331.95	-2205.97	 5570.32
     24.7450	 6300.00	 6330.77	-2186.79	 5568.72
     24.7710	 6243.00	 6329.59	-2242.61	 5567.12
     24.7970	 6302.00	 6328.41	-2182.43	 5565.53
     24.8230	 6433.00	 6327.25	-2050.27	 5563.93
     24.8490	 6434.00	 6326.08	-2048.10	 5562.33
     24.8750	 6311.00	 6324.93	-2169.95	 5560.74
     24.9010	 6315.00	 6323.78	-2164.80	 5559.14
     24.9270	 6292.00	 6322.63	-2186.65	 5557.54
     24.9530	 6368.00	 6321.50	-2109.52	 5555.95
     24.9790	 6327.00	 6320.36	-2149.38	 5554.35
     25.0050	 6296.00	 6319.24	-2179.26	 5552.75
     25.0310	 6294.00	 6318.12	-2180.14	 5551.16
     25.0570	 6315.00	 6317.01	-2158.03	 5549.56
     25.0830	 6288.00	 6315.91	-2183.93	 5547.97
     25.1090	 6277.00	 6314.81	-2193.83	 5546.37
     25.1350	 6265.00	 6313.72	-2204.74	 5544.77
     25.1610	 6300.00	 6312.63	-2168.65	 5543.18
     25.1870	 6373.00	 6311.56	-2094.58	 5541.58
     25.2130	 6352.00	 6310.49	-2114.51	 5539.98
     25.2390	 6350.00	 6309.42	-2115.44	 5538.39
     25.2650	 6418.00	 6308.37	-2046.39	 5536.79
     25.2910	 6295.00	 6307.32	-2168.34	 5535.19
     25.3170	 6309.00	 6306.28	-2153.30	 5533.60
     25.3430	 6315.00	 6305.25	-2146.27	 5532.00
     25.3690	 6427.00	 6304.23	-2033.25	 5530.40
     25.3950	 6436.00	 6303.21	-2023.23	 5528.81
     25.4210	 6342.00	 6302.21	-2116.23	 5527.21
     25.4470	 6325.00	 6301.21	-2132.23	 5525.61
