 AH10    CELL:    8.41755   8.41755   8.41755   90.0000   90.0000   90.0000   SPGR: F d -3 m               TEMP:      0.00
  2   2874     1.54056     1.54439    -0.20968     0.00000     0.00000    0
   94   22    0    0    0
 2Theta	Yobs	Ycal	Yobs-Ycal	Backg	Bragg	Posr	(hkl)	K
      5.1690	 5101.00	 5302.40	-1577.65	 4867.64	     18.0296	       0	(  1  1  1)	  0  1
      5.1950	 5130.00	 5277.66	-1523.91	 4842.88	     18.0753	       0	(  1  1  1)	  0  2
      5.2210	 5076.00	 5253.21	-1553.46	 4818.41	     29.7908	       0	(  2  2  0)	  0  1
      5.2470	 5107.00	 5229.05	-1498.30	 4794.23	     29.8671	       0	(  2  2  0)	  0  2
      5.2730	 5104.00	 5205.19	-1477.44	 4770.35	     35.1258	       0	(  3  1  1)	  0  1
      5.2990	 5082.00	 5181.60	-1475.85	 4746.75	     35.2165	       0	(  3  1  1)	  0  2
      5.3250	 5086.00	 5158.30	-1448.55	 4723.43	     36.7526	       0	(  2  2  2)	  0  1
      5.3510	 5042.00	 5135.28	-1469.53	 4700.39	     36.8478	       0	(  2  2  2)	  0  2
      5.3770	 4999.00	 5112.53	-1489.78	 4677.62	     36.8791	    -344	(  1  1  1)	  0  1
      5.4030	 5016.00	 5090.05	-1450.30	 4655.12	     36.9747	    -344	(  1  1  1)	  0  2
      5.4290	 4929.00	 5067.84	-1515.09	 4632.90	     42.7324	       0	(  4  0  0)	  0  1
      5.4550	 5026.00	 5045.90	-1396.15	 4610.93	     42.8444	       0	(  4  0  0)	  0  2
      5.4810	 4961.00	 5024.21	-1439.46	 4589.23	     42.8814	    -344	(  2  0  0)	  0  1
      5.5070	 4991.00	 5002.78	-1388.03	 4567.78	     42.9938	    -344	(  2  0  0)	  0  2
      5.5330	 5058.00	 4981.60	-1299.85	 4546.59	     46.8058	       0	(  3  3  1)	  0  1
      5.5590	 4994.00	 4960.68	-1342.93	 4525.64	     46.9297	       0	(  3  3  1)	  0  2
      5.5850	 4969.00	 4940.00	-1347.25	 4504.95	     53.0590	       0	(  4  2  2)	  0  1
      5.6110	 4815.00	 4919.57	-1480.82	 4484.50	     53.2018	       0	(  4  2  2)	  0  2
      5.6370	 4840.00	 4899.38	-1435.63	 4464.29	     56.5726	       0	(  3  3  3)	  0  1
      5.6630	 4818.00	 4879.43	-1437.68	 4444.32	     56.5726	       0	(  5  1  1)	  0  1
      5.6890	 4781.00	 4859.71	-1454.96	 4424.58	     56.7266	       0	(  3  3  3)	  0  2
      5.7150	 4794.00	 4840.23	-1422.48	 4405.08	     56.7266	       0	(  5  1  1)	  0  2
      5.7410	 4759.00	 4820.97	-1438.22	 4385.80	     62.1393	       0	(  4  4  0)	  0  1
      5.7670	 4820.00	 4801.94	-1358.19	 4366.75	     62.3117	       0	(  4  4  0)	  0  2
      5.7930	 4767.00	 4783.13	-1392.38	 4347.93	     62.3685	    -344	(  2  2  0)	  0  1
      5.8190	 4663.00	 4764.55	-1477.80	 4329.32	     62.5416	    -344	(  2  2  0)	  0  2
      5.8450	 4645.00	 4746.17	-1477.42	 4310.93	     65.3439	       0	(  5  3  1)	  0  1
      5.8710	 4754.00	 4728.02	-1350.27	 4292.76	     65.5273	       0	(  5  3  1)	  0  2
      5.8970	 4897.00	 4710.08	-1189.33	 4274.79	     66.3936	       0	(  4  4  2)	  0  1
      5.9230	 4765.00	 4692.34	-1303.59	 4257.04	     66.5807	       0	(  4  4  2)	  0  2
      5.9490	 4609.00	 4674.81	-1442.06	 4239.49	     70.5151	       0	(  6  2  0)	  0  1
      5.9750	 4642.00	 4657.49	-1391.74	 4222.14	     70.7173	       0	(  6  2  0)	  0  2
      6.0010	 4671.00	 4640.36	-1345.61	 4205.00	     73.5382	       0	(  5  3  3)	  0  1
      6.0270	 4677.00	 4623.43	-1322.68	 4188.05	     73.7520	       0	(  5  3  3)	  0  2
      6.0530	 4696.00	 4606.70	-1286.95	 4171.30	     74.5352	       0	(  6  2  2)	  0  1
      6.0790	 4632.00	 4590.16	-1334.41	 4154.74	     74.7529	       0	(  6  2  2)	  0  2
      6.1050	 4616.00	 4573.81	-1334.06	 4138.37	     74.8247	    -344	(  3  1  1)	  0  1
      6.1310	 4566.00	 4557.65	-1367.90	 4122.19	     75.0434	    -344	(  3  1  1)	  0  2
      6.1570	 4541.00	 4541.68	-1376.93	 4106.20	     78.4797	       0	(  4  4  4)	  0  1
      6.1830	 4542.00	 4525.89	-1360.14	 4090.39	     78.7134	       0	(  4  4  4)	  0  2
      6.2090	 4546.00	 4510.27	-1340.52	 4074.75	     78.7904	    -344	(  2  2  2)	  0  1
      6.2350	 4535.00	 4494.84	-1336.09	 4059.30	     79.0253	    -344	(  2  2  2)	  0  2
      6.2610	 4482.00	 4479.58	-1373.83	 4044.02	     81.4018	       0	(  7  1  1)	  0  1
      6.2870	 4456.00	 4464.49	-1384.74	 4028.91	     81.4018	       0	(  5  5  1)	  0  1
      6.3130	 4520.00	 4449.58	-1305.83	 4013.97	     81.6478	       0	(  7  1  1)	  0  2
      6.3390	 4529.00	 4434.83	-1282.08	 3999.21	     81.6478	       0	(  5  5  1)	  0  2
      6.3650	 4555.00	 4420.25	-1241.50	 3984.61	     86.2272	       0	(  6  4  2)	  0  1
      6.3910	 4579.00	 4405.83	-1203.08	 3970.17	     86.4950	       0	(  6  4  2)	  0  2
      6.4170	 4486.00	 4391.58	-1281.83	 3955.89	     89.1081	       0	(  5  5  3)	  0  1
      6.4430	 4441.00	 4377.48	-1312.73	 3941.78	     89.1081	       0	(  7  3  1)	  0  1
      6.4690	 4464.00	 4363.55	-1275.80	 3927.82	     89.3898	       0	(  5  5  3)	  0  2
      6.4950	 4503.00	 4349.76	-1223.01	 3914.02	     89.3898	       0	(  7  3  1)	  0  2
      6.5210	 4433.00	 4336.13	-1279.38	 3900.37	     93.9094	       0	(  8  0  0)	  0  1
      6.5470	 4322.00	 4322.65	-1376.90	 3886.87	     94.2159	       0	(  8  0  0)	  0  2
      6.5730	 4241.00	 4309.32	-1444.57	 3873.52	     94.3170	    -344	(  4  0  0)	  0  1
      6.5990	 4293.00	 4296.14	-1379.39	 3860.31	     94.6257	    -344	(  4  0  0)	  0  2
      6.6250	 4436.00	 4283.11	-1223.36	 3847.25	     96.8020	       0	(  7  3  3)	  0  1
      6.6510	 4439.00	 4270.21	-1207.46	 3834.34	     97.1245	       0	(  7  3  3)	  0  2
      6.6770	 4377.00	 4257.46	-1256.71	 3821.56	     97.7699	       0	(  6  4  4)	  0  1
      6.7030	 4313.00	 4244.84	-1308.09	 3808.93	     98.0978	       0	(  6  4  4)	  0  2
      6.7290	 4371.00	 4232.37	-1237.62	 3796.43	    101.6672	       0	(  6  6  0)	  0  1
      6.7550	 4362.00	 4220.02	-1234.27	 3784.07	    101.6672	       0	(  8  2  2)	  0  1
      6.7810	 4311.00	 4207.81	-1273.06	 3771.83	    102.0187	       0	(  6  6  0)	  0  2
      6.8070	 4202.00	 4195.74	-1369.99	 3759.74	    102.0187	       0	(  8  2  2)	  0  2
      6.8330	 4254.00	 4183.79	-1306.04	 3747.77	    104.6262	       0	(  5  5  5)	  0  1
      6.8590	 4261.00	 4171.97	-1287.22	 3735.93	    104.6262	       0	(  7  5  1)	  0  1
      6.8850	 4275.00	 4160.28	-1261.53	 3724.21	    104.9970	       0	(  5  5  5)	  0  2
      6.9110	 4198.00	 4148.71	-1326.96	 3712.62	    104.9970	       0	(  7  5  1)	  0  2
      6.9370	 4094.00	 4137.27	-1419.52	 3701.15	    105.6212	       0	(  6  6  2)	  0  1
      6.9630	 4026.00	 4125.94	-1476.19	 3689.81	    105.9987	       0	(  6  6  2)	  0  2
      6.9890	 4115.00	 4114.74	-1375.99	 3678.58	    106.1235	    -344	(  3  3  1)	  0  1
      7.0150	 4173.00	 4103.65	-1306.90	 3667.47	    106.5045	    -344	(  3  3  1)	  0  2
      7.0410	 4201.00	 4092.68	-1267.93	 3656.48	    109.6543	       0	(  8  4  0)	  0  1
      7.0670	 4112.00	 4081.82	-1346.07	 3645.60	    110.0609	       0	(  8  4  0)	  0  2
      7.0930	 4024.00	 4071.08	-1423.33	 3634.83	    110.1954	    -344	(  4  2  0)	  0  1
      7.1190	 4152.00	 4060.44	-1284.69	 3624.18	    110.6062	    -344	(  4  2  0)	  0  2
      7.1450	 4196.00	 4049.92	-1230.17	 3613.63	    112.7467	       0	(  7  5  3)	  0  1
      7.1710	 4148.00	 4039.50	-1267.75	 3603.19	    112.7467	       0	(  9  1  1)	  0  1
      7.1970	 4119.00	 4029.20	-1286.45	 3592.86	    113.1777	       0	(  7  5  3)	  0  2
      7.2230	 4095.00	 4018.99	-1300.24	 3582.64	    113.1777	       0	(  9  1  1)	  0  2
      7.2490	 4038.00	 4008.89	-1347.14	 3572.51	    113.7929	       0	(  8  4  2)	  0  1
      7.2750	 4036.00	 3998.90	-1339.15	 3562.49	    114.2327	       0	(  8  4  2)	  0  2
      7.3010	 4046.00	 3989.00	-1319.25	 3552.57	    118.0694	       0	(  6  6  4)	  0  1
      7.3270	 4046.00	 3979.20	-1309.45	 3542.75	    118.5476	       0	(  6  6  4)	  0  2
      7.3530	 4028.00	 3969.50	-1317.75	 3533.03	    121.3919	       0	(  9  3  1)	  0  1
      7.3790	 4048.00	 3959.90	-1288.15	 3523.41	    121.9034	       0	(  9  3  1)	  0  2
      7.4050	 3979.00	 3950.40	-1347.65	 3513.88	    127.2170	       0	(  8  4  4)	  0  1
      7.4310	 3972.00	 3940.98	-1345.23	 3504.44	    127.7964	       0	(  8  4  4)	  0  2
      7.4570	 3876.00	 3931.66	-1431.91	 3495.10	    127.9887	    -344	(  4  2  2)	  0  1
      7.4830	 3927.00	 3922.43	-1371.68	 3485.84	    128.5782	    -344	(  4  2  2)	  0  2
      7.5090	 3954.00	 3913.30	-1335.55	 3476.68	    130.9369	       0	(  7  5  5)	  0  1
      7.5350	 3918.00	 3904.25	-1362.50	 3467.61	    130.9369	       0	(  7  7  1)	  0  1
      7.5610	 3856.00	 3895.28	-1415.53	 3458.62	    130.9369	       0	(  9  3  3)	  0  1
      7.5870	 3952.00	 3886.41	-1310.66	 3449.72	    131.5676	       0	(  7  5  5)	  0  2
      7.6130	 3901.00	 3877.62	-1352.87	 3440.91	    131.5676	       0	(  7  7  1)	  0  2
      7.6390	 3898.00	 3868.91	-1347.16	 3432.18	    131.5676	       0	(  9  3  3)	  0  2
      7.6650	 4024.00	 3860.29	-1212.54	 3423.53	    137.6688	       0	(  8  6  2)	  0  1
      7.6910	 3978.00	 3851.74	-1249.99	 3414.96	    137.6689	       0	( 10  2  0)	  0  1
      7.7170	 3904.00	 3843.28	-1315.53	 3406.47	    138.4146	       0	(  8  6  2)	  0  2
      7.7430	 3947.00	 3834.90	-1264.15	 3398.07	    138.4146	       0	( 10  2  0)	  0  2
      7.7690	 3905.00	 3826.59	-1297.84	 3389.74	    142.1600	       0	(  7  7  3)	  0  1
      7.7950	 3823.00	 3818.37	-1371.62	 3381.49	    142.1600	       0	(  9  5  1)	  0  1
      7.8210	 3888.00	 3810.22	-1298.47	 3373.31	    143.0048	       0	(  7  7  3)	  0  2
      7.8470	 3788.00	 3802.14	-1390.39	 3365.21	    143.0048	       0	(  9  5  1)	  0  2
      7.8730	 3874.00	 3794.14	-1296.39	 3357.18	    143.7608	       0	(  6  6  6)	  0  1
      7.8990	 3837.00	 3786.21	-1325.46	 3349.23	    143.7608	       0	( 10  2  2)	  0  1
      7.9250	 3949.00	 3778.35	-1205.60	 3341.35	    144.6469	       0	(  6  6  6)	  0  2
      7.9510	 3735.00	 3770.57	-1411.82	 3333.54	    144.6469	       0	( 10  2  2)	  0  2
      7.9770	 3807.00	 3762.85	-1332.10	 3325.79	    144.9436	    -344	(  3  3  3)	  0  1
      8.0030	 3799.00	 3755.20	-1332.45	 3318.12	    144.9437	    -344	(  5  1  1)	  0  1
      8.0290	 3751.00	 3747.62	-1372.87	 3310.52	    145.8627	    -344	(  3  3  3)	  0  2
      8.0550	 3635.00	 3740.11	-1481.36	 3302.98	    145.8627	    -344	(  5  1  1)	  0  2
      8.0810	 3704.00	 3732.67	-1404.92	 3295.51	    157.6017	       0	(  9  5  3)	  0  1
      8.1070	 3683.00	 3725.29	-1418.54	 3288.10	    159.1040	       0	(  9  5  3)	  0  2
      8.1330	 3624.00	 3717.97	-1470.22	 3280.76	    160.2991	       0	(  8  6  4)	  0  1
      8.1590	 3658.00	 3710.72	-1428.97	 3273.48	    162.0334	       0	(  8  6  4)	  0  2
      8.1850	 3634.00	 3703.52	-1445.77	 3266.26
      8.2110	 3732.00	 3696.40	-1340.65	 3259.11
      8.2370	 3660.00	 3689.33	-1405.58	 3252.02
      8.2630	 3705.00	 3682.32	-1353.57	 3244.98
      8.2890	 3691.00	 3675.37	-1360.62	 3238.01
      8.3150	 3636.00	 3668.48	-1408.73	 3231.09
      8.3410	 3585.00	 3661.65	-1452.90	 3224.23
      8.3670	 3614.00	 3654.88	-1417.13	 3217.43
      8.3930	 3660.00	 3648.16	-1364.41	 3210.68
      8.4190	 3674.00	 3641.49	-1343.74	 3203.99
      8.4450	 3631.00	 3634.88	-1380.13	 3197.36
      8.4710	 3529.00	 3628.33	-1475.58	 3190.77
      8.4970	 3601.00	 3621.83	-1397.08	 3184.25
      8.5230	 3638.00	 3615.38	-1353.63	 3177.77
      8.5490	 3657.00	 3608.98	-1328.23	 3171.34
      8.5750	 3660.00	 3602.63	-1318.88	 3164.97
      8.6010	 3620.00	 3596.34	-1352.59	 3158.64
      8.6270	 3664.00	 3590.09	-1302.34	 3152.37
      8.6530	 3608.00	 3583.89	-1352.14	 3146.15
      8.6790	 3541.00	 3577.74	-1412.99	 3139.97
      8.7050	 3531.00	 3571.64	-1416.89	 3133.84
      8.7310	 3498.00	 3565.59	-1443.84	 3127.76
      8.7570	 3577.00	 3559.58	-1358.83	 3121.72
      8.7830	 3610.00	 3553.62	-1319.87	 3115.73
      8.8090	 3557.00	 3547.71	-1366.96	 3109.79
      8.8350	 3457.00	 3541.83	-1461.08	 3103.89
      8.8610	 3526.00	 3536.01	-1386.26	 3098.04
      8.8870	 3580.00	 3530.23	-1326.48	 3092.22
      8.9130	 3526.00	 3524.49	-1374.74	 3086.46
      8.9390	 3497.00	 3518.79	-1398.04	 3080.73
      8.9650	 3506.00	 3513.14	-1383.39	 3075.05
      8.9910	 3507.00	 3507.52	-1376.77	 3069.41
      9.0170	 3478.00	 3501.95	-1400.20	 3063.80
      9.0430	 3482.00	 3496.42	-1390.67	 3058.24
      9.0690	 3464.00	 3490.93	-1403.18	 3052.72
      9.0950	 3453.00	 3485.48	-1408.73	 3047.24
      9.1210	 3458.00	 3480.07	-1398.32	 3041.80
      9.1470	 3472.00	 3474.70	-1378.95	 3036.40
      9.1730	 3421.00	 3469.36	-1424.61	 3031.04
      9.1990	 3376.00	 3464.07	-1464.32	 3025.71
      9.2250	 3405.00	 3458.81	-1430.06	 3020.42
      9.2510	 3484.00	 3453.59	-1345.84	 3015.17
      9.2770	 3463.00	 3448.40	-1361.65	 3009.95
      9.3030	 3377.00	 3443.25	-1442.50	 3004.77
      9.3290	 3393.00	 3438.14	-1421.39	 2999.63
      9.3550	 3332.00	 3433.06	-1477.31	 2994.52
      9.3810	 3366.00	 3428.02	-1438.27	 2989.45
      9.4070	 3344.00	 3423.01	-1455.26	 2984.41
      9.4330	 3492.00	 3418.04	-1302.29	 2979.40
      9.4590	 3605.00	 3413.10	-1184.35	 2974.43
      9.4850	 3555.00	 3408.19	-1229.44	 2969.49
      9.5110	 3439.00	 3403.32	-1340.57	 2964.59
      9.5370	 3313.00	 3398.48	-1461.73	 2959.72
      9.5630	 3292.00	 3393.67	-1477.92	 2954.88
      9.5890	 3281.00	 3388.90	-1484.15	 2950.07
      9.6150	 3294.00	 3384.16	-1466.41	 2945.30
      9.6410	 3294.00	 3379.44	-1461.69	 2940.55
      9.6670	 3249.00	 3374.76	-1502.01	 2935.84
      9.6930	 3201.00	 3370.12	-1545.37	 2931.16
      9.7190	 3252.00	 3365.50	-1489.75	 2926.51
      9.7450	 3255.00	 3360.91	-1482.16	 2921.89
      9.7710	 3424.00	 3356.35	-1308.60	 2917.30
      9.7970	 3216.00	 3351.82	-1512.07	 2912.74
      9.8230	 3260.00	 3347.33	-1463.58	 2908.20
      9.8490	 3264.00	 3342.86	-1455.11	 2903.70
      9.8750	 3284.00	 3338.42	-1430.67	 2899.23
      9.9010	 3334.00	 3334.01	-1376.26	 2894.78
      9.9270	 3200.00	 3329.63	-1505.88	 2890.37
      9.9530	 3222.00	 3325.27	-1479.52	 2885.98
      9.9790	 3193.00	 3320.95	-1504.20	 2881.62
     10.0050	 3331.00	 3316.65	-1361.90	 2877.29
     10.0310	 3084.00	 3312.38	-1604.63	 2872.98
     10.0570	 3230.00	 3308.14	-1454.39	 2868.71
     10.0830	 3176.00	 3303.92	-1504.17	 2864.46
     10.1090	 3241.00	 3299.74	-1434.99	 2860.24
     10.1350	 3230.00	 3295.57	-1441.82	 2856.04
     10.1610	 3210.00	 3291.44	-1457.69	 2851.87
     10.1870	 3163.00	 3287.33	-1500.58	 2847.73
     10.2130	 3196.00	 3283.25	-1463.50	 2843.61
     10.2390	 3167.00	 3279.20	-1488.45	 2839.52
     10.2650	 3237.00	 3275.17	-1414.42	 2835.45
     10.2910	 3125.00	 3271.16	-1522.41	 2831.41
     10.3170	 3188.00	 3267.19	-1455.44	 2827.40
     10.3430	 3139.00	 3263.24	-1500.49	 2823.41
     10.3690	 3116.00	 3259.31	-1519.56	 2819.45
     10.3950	 3037.00	 3255.41	-1594.66	 2815.51
     10.4210	 3085.00	 3251.53	-1542.78	 2811.60
     10.4470	 3252.00	 3247.68	-1371.93	 2807.71
     10.4730	 3074.00	 3243.85	-1546.10	 2803.84
     10.4990	 3161.00	 3240.05	-1455.30	 2800.00
     10.5250	 3148.00	 3236.27	-1464.52	 2796.19
     10.5510	 3080.00	 3232.52	-1528.77	 2792.40
     10.5770	 3137.00	 3228.79	-1468.04	 2788.63
     10.6030	 3192.00	 3225.09	-1409.34	 2784.89
     10.6290	 3097.00	 3221.40	-1500.65	 2781.17
     10.6550	 3155.00	 3217.75	-1439.00	 2777.47
     10.6810	 3061.00	 3214.11	-1529.36	 2773.80
     10.7070	 3039.00	 3210.50	-1547.75	 2770.15
     10.7330	 3196.00	 3206.92	-1387.17	 2766.53
     10.7590	 3191.00	 3203.36	-1388.61	 2762.93
     10.7850	 3189.00	 3199.82	-1387.07	 2759.35
     10.8110	 3215.00	 3196.30	-1357.55	 2755.79
     10.8370	 3199.00	 3192.81	-1370.06	 2752.26
     10.8630	 3091.00	 3189.34	-1474.59	 2748.75
     10.8890	 3093.00	 3185.90	-1469.15	 2745.26
     10.9150	 3106.00	 3182.47	-1452.72	 2741.80
     10.9410	 3097.00	 3179.07	-1458.32	 2738.36
     10.9670	 3052.00	 3175.69	-1499.94	 2734.94
     10.9930	 3099.00	 3172.34	-1449.59	 2731.54
     11.0190	 3131.00	 3169.01	-1414.26	 2728.17
     11.0450	 3160.00	 3165.70	-1381.95	 2724.82
     11.0710	 3150.00	 3162.41	-1388.66	 2721.49
     11.0970	 3212.00	 3159.15	-1323.40	 2718.19
     11.1230	 3186.00	 3155.91	-1346.16	 2714.90
     11.1490	 3173.00	 3152.69	-1355.94	 2711.64
     11.1750	 3136.00	 3149.49	-1389.74	 2708.40
     11.2010	 3048.00	 3146.32	-1474.57	 2705.18
     11.2270	 3063.00	 3143.17	-1456.42	 2701.99
     11.2530	 3070.00	 3140.03	-1446.28	 2698.81
     11.2790	 3056.00	 3136.93	-1457.18	 2695.66
     11.3050	 3111.00	 3133.84	-1399.09	 2692.53
     11.3310	 3124.00	 3130.78	-1383.03	 2689.43
     11.3570	 3084.00	 3127.74	-1419.99	 2686.34
     11.3830	 3106.00	 3124.72	-1394.97	 2683.28
     11.4090	 3154.00	 3121.72	-1343.97	 2680.24
     11.4350	 3099.00	 3118.79	-1396.04	 2677.21
     11.4610	 3058.00	 3115.84	-1434.09	 2674.22
     11.4870	 3112.00	 3112.91	-1377.16	 2671.24
     11.5130	 3151.00	 3110.02	-1335.27	 2668.28
     11.5390	 3143.00	 3107.13	-1340.38	 2665.35
     11.5650	 3149.00	 3104.27	-1331.52	 2662.44
     11.5910	 3142.00	 3101.42	-1335.67	 2659.55
     11.6170	 3085.00	 3098.60	-1389.85	 2656.68
     11.6430	 3074.00	 3095.80	-1398.05	 2653.83
     11.6690	 3090.00	 3093.02	-1379.27	 2651.01
     11.6950	 3100.00	 3090.27	-1366.52	 2648.20
     11.7210	 3152.00	 3087.53	-1311.78	 2645.42
     11.7470	 3174.00	 3084.82	-1287.07	 2642.66
     11.7730	 3147.00	 3082.13	-1311.38	 2639.92
     11.7990	 3154.00	 3079.46	-1301.71	 2637.20
     11.8250	 3147.00	 3076.81	-1306.06	 2634.50
     11.8510	 3110.00	 3074.19	-1340.44	 2631.83
     11.8770	 3110.00	 3071.58	-1337.83	 2629.18
     11.9030	 3108.00	 3069.00	-1337.25	 2626.54
     11.9290	 3102.00	 3066.44	-1340.69	 2623.93
     11.9550	 3031.00	 3063.90	-1409.15	 2621.34
     11.9810	 3071.00	 3061.39	-1366.64	 2618.78
     12.0070	 3092.00	 3058.89	-1343.14	 2616.23
     12.0330	 3049.00	 3056.42	-1383.67	 2613.70
     12.0590	 3089.00	 3053.97	-1341.22	 2611.20
     12.0850	 3078.00	 3051.54	-1349.79	 2608.72
     12.1110	 3135.00	 3049.13	-1290.38	 2606.26
     12.1370	 3130.00	 3046.74	-1292.99	 2603.82
     12.1630	 3067.00	 3044.38	-1353.63	 2601.40
     12.1890	 3094.00	 3042.04	-1324.29	 2599.01
     12.2150	 3077.00	 3039.72	-1338.97	 2596.63
     12.2410	 3120.00	 3037.42	-1293.67	 2594.28
     12.2670	 3100.00	 3035.14	-1311.39	 2591.95
     12.2930	 3083.00	 3032.89	-1326.14	 2589.64
     12.3190	 3078.00	 3030.65	-1328.90	 2587.35
     12.3450	 3072.00	 3028.44	-1332.69	 2585.08
     12.3710	 3080.00	 3026.25	-1322.50	 2582.84
     12.3970	 3129.00	 3024.09	-1271.34	 2580.61
     12.4230	 3039.00	 3021.94	-1359.19	 2578.41
     12.4490	 3064.00	 3019.82	-1332.07	 2576.23
     12.4750	 3060.00	 3017.72	-1333.97	 2574.07
     12.5010	 3155.00	 3015.64	-1236.89	 2571.94
     12.5270	 2937.00	 3013.58	-1452.83	 2569.82
     12.5530	 3033.00	 3011.54	-1354.79	 2567.73
     12.5790	 3010.00	 3009.53	-1375.78	 2565.65
     12.6050	 3048.00	 3007.54	-1335.79	 2563.60
     12.6310	 3027.00	 3005.57	-1354.82	 2561.57
     12.6570	 3114.00	 3003.63	-1265.88	 2559.57
     12.6830	 2904.00	 3001.70	-1473.95	 2557.58
     12.7090	 3028.00	 2999.80	-1348.05	 2555.62
     12.7350	 3048.00	 2997.92	-1326.17	 2553.67
     12.7610	 3084.00	 2996.06	-1288.31	 2551.75
     12.7870	 2990.00	 2994.22	-1380.47	 2549.86
     12.8130	 3118.00	 2992.41	-1250.66	 2547.98
     12.8390	 2962.00	 2990.62	-1404.87	 2546.12
     12.8650	 3073.00	 2988.85	-1292.10	 2544.29
     12.8910	 3045.00	 2987.10	-1318.35	 2542.48
     12.9170	 3016.00	 2985.38	-1345.63	 2540.69
     12.9430	 3029.00	 2983.68	-1330.93	 2538.92
     12.9690	 3112.00	 2982.00	-1246.25	 2537.18
     12.9950	 3025.00	 2980.34	-1331.59	 2535.45
     13.0210	 3037.00	 2978.70	-1317.95	 2533.75
     13.0470	 3123.00	 2977.09	-1230.34	 2532.07
     13.0730	 3020.00	 2975.50	-1331.75	 2530.41
