 DD67    CELL:    8.43849   8.43849   8.43849   90.0000   90.0000   90.0000   SPGR: F d -3 m               TEMP:      0.00
  2   2495     1.54056     1.54443     0.00000     0.00000     0.00000    0
    32    10     0     0     0
 2Theta	Yobs	Ycal	Yobs-Ycal	Backg	Posr	(hkl)	K
     15.0230	 2829.00	 2769.66	-1320.85	 2273.07
     15.0490	 2821.00	 2769.92	-1329.11	 2273.07
     15.0750	 2926.00	 2770.18	-1224.37	 2273.07
     15.1010	 2899.00	 2770.45	-1251.64	 2273.07
     15.1270	 2833.00	 2770.72	-1317.91	 2273.07
     15.1530	 2817.00	 2771.00	-1334.19	 2273.07
     15.1790	 2878.00	 2771.29	-1273.48	 2273.07
     15.2050	 2852.00	 2771.58	-1299.77	 2273.07
     15.2310	 2796.00	 2771.88	-1356.07	 2273.07
     15.2570	 2894.00	 2772.19	-1258.38	 2273.07
     15.2830	 2907.00	 2772.50	-1245.69	 2273.07
     15.3090	 2907.00	 2772.82	-1246.01	 2273.07
     15.3350	 2949.00	 2773.15	-1204.34	 2273.07
     15.3610	 2889.00	 2773.48	-1264.67	 2273.07
     15.3870	 2883.00	 2773.82	-1271.01	 2273.07
     15.4130	 2803.00	 2774.17	-1351.36	 2273.07
     15.4390	 2831.00	 2774.53	-1323.72	 2273.07
     15.4650	 2893.00	 2774.90	-1262.09	 2273.07
     15.4910	 2925.00	 2775.27	-1230.46	 2273.07
     15.5170	 2902.00	 2775.66	-1253.85	 2273.07
     15.5430	 2959.00	 2776.05	-1197.24	 2273.07
     15.5690	 2915.00	 2775.19	-1240.38	 2271.82
     15.5950	 2836.00	 2778.09	-1322.28	 2274.30
     15.6210	 2889.00	 2780.99	-1272.18	 2276.77
     15.6470	 2828.00	 2783.90	-1336.09	 2279.25
     15.6730	 2960.00	 2786.83	-1207.02	 2281.73
     15.6990	 2965.00	 2789.76	-1204.95	 2284.21
     15.7250	 2908.00	 2792.71	-1264.90	 2286.69
     15.7510	 2946.00	 2795.67	-1229.86	 2289.17
     15.7770	 2939.00	 2798.64	-1239.83	 2291.65
     15.8030	 2920.00	 2801.63	-1261.82	 2294.13
     15.8290	 2872.00	 2804.62	-1312.82	 2296.61
     15.8550	 2920.00	 2807.64	-1267.83	 2299.09
     15.8810	 3007.00	 2810.66	-1183.85	 2301.57
     15.9070	 2985.00	 2813.70	-1208.89	 2304.05
     15.9330	 2947.00	 2816.76	-1249.95	 2306.53
     15.9590	 2902.00	 2819.83	-1298.02	 2309.01
     15.9850	 2865.00	 2822.92	-1338.11	 2311.49
     16.0110	 2905.00	 2826.03	-1301.22	 2313.96
     16.0370	 2924.00	 2829.15	-1285.34	 2316.44
     16.0630	 2921.00	 2832.29	-1291.48	 2318.92
     16.0890	 2969.00	 2835.45	-1246.64	 2321.40
     16.1150	 2905.00	 2838.63	-1313.82	 2323.88
     16.1410	 2961.00	 2841.83	-1261.02	 2326.36
     16.1670	 2803.00	 2845.05	-1422.24	 2328.84
     16.1930	 2938.00	 2848.30	-1290.49	 2331.32
     16.2190	 2910.00	 2851.56	-1321.75	 2333.80
     16.2450	 2916.00	 2854.85	-1319.04	 2336.28
     16.2710	 2955.00	 2858.16	-1283.35	 2338.76
     16.2970	 2914.00	 2861.50	-1327.69	 2341.24
     16.3230	 2923.00	 2864.86	-1322.06	 2343.72
     16.3490	 2974.00	 2868.26	-1274.45	 2346.20
     16.3750	 2988.00	 2871.68	-1263.87	 2348.68
     16.4010	 2977.00	 2875.12	-1278.31	 2351.16
     16.4270	 3066.00	 2878.60	-1192.79	 2353.63
     16.4530	 3077.00	 2882.11	-1185.30	 2356.11
     16.4790	 2992.00	 2885.66	-1273.85	 2358.59
     16.5050	 3048.00	 2889.23	-1221.42	 2361.07
     16.5310	 2949.00	 2892.84	-1324.04	 2363.55
     16.5570	 2908.00	 2896.49	-1368.68	 2366.03
     16.5830	 2984.00	 2900.18	-1296.37	 2368.51
     16.6090	 3028.00	 2903.90	-1256.09	 2370.99
     16.6350	 3020.00	 2907.67	-1267.86	 2373.47
     16.6610	 2989.00	 2911.48	-1302.67	 2375.95
     16.6870	 2975.00	 2915.33	-1320.52	 2378.43
     16.7130	 2942.00	 2919.22	-1357.41	 2380.91
     16.7390	 2957.00	 2923.17	-1346.36	 2383.39
     16.7650	 3022.00	 2927.16	-1285.35	 2385.87
     16.7910	 3016.00	 2931.20	-1295.39	 2388.35
     16.8170	 3054.00	 2935.29	-1261.48	 2390.82
     16.8430	 3104.00	 2939.44	-1215.63	 2393.30
     16.8690	 3043.00	 2943.64	-1280.83	 2395.78
     16.8950	 3011.00	 2947.90	-1317.09	 2398.26
     16.9210	 3019.00	 2952.22	-1313.41	 2400.74
     16.9470	 3040.00	 2956.61	-1296.80	 2403.22
     16.9730	 3031.00	 2961.05	-1310.24	 2405.70
     16.9990	 2975.00	 2965.56	-1370.75	 2408.18
     17.0250	 2998.00	 2970.13	-1352.32	 2410.66
     17.0510	 3047.00	 2974.78	-1307.97	 2413.14
     17.0770	 3062.00	 2979.49	-1297.68	 2415.62
     17.1030	 3027.00	 2984.28	-1337.47	 2418.10
     17.1290	 3031.00	 2989.14	-1338.33	 2420.58
     17.1550	 3102.00	 2994.08	-1272.27	 2423.06
     17.1810	 3077.00	 2999.09	-1302.28	 2425.54
     17.2070	 3012.00	 3004.18	-1372.37	 2428.01
     17.2330	 2985.00	 3009.35	-1404.54	 2430.49
     17.2590	 3049.00	 3014.60	-1345.79	 2432.97
     17.2850	 3091.00	 3019.93	-1309.12	 2435.45
     17.3110	 3002.00	 3025.34	-1403.53	 2437.93
     17.3370	 3085.00	 3030.83	-1326.02	 2440.41
     17.3630	 3020.00	 3036.40	-1396.59	 2442.89
     17.3890	 3021.00	 3042.05	-1401.24	 2445.37
     17.4150	 3088.00	 3047.77	-1339.96	 2447.85
     17.4410	 3081.00	 3053.57	-1352.76	 2450.33
     17.4670	 3044.00	 3059.44	-1395.63	 2452.81
     17.4930	 3057.00	 3065.37	-1388.56	 2455.29
     17.5190	 3135.00	 3071.37	-1316.56	 2457.77
     17.5450	 3093.00	 3077.42	-1364.61	 2460.25
     17.5710	 3096.00	 3083.53	-1367.72	 2462.73
     17.5970	 3080.00	 3089.78	-1389.97	 2465.21
     17.6230	 3163.00	 3095.96	-1313.15	 2467.68
     17.6490	 3101.00	 3102.16	-1381.35	 2470.16
     17.6750	 3012.00	 3108.38	-1476.57	 2472.64
     17.7010	 3062.00	 3114.64	-1432.83	 2475.12
     17.7270	 3075.00	 3120.84	-1426.03	 2477.60
     17.7530	 3150.00	 3127.01	-1357.20	 2480.08
     17.7790	 3061.00	 3133.14	-1452.33	 2482.56
     17.8050	 3014.00	 3139.20	-1505.39	 2485.04
     17.8310	 3092.00	 3145.18	-1433.37	 2487.52
     17.8570	 3134.00	 3151.05	-1397.24	 2490.00
     17.8830	 3041.00	 3156.81	-1496.00	 2492.48
     17.9090	 3107.00	 3162.43	-1435.62	 2494.96
     17.9350	 3076.00	 3167.88	-1472.07	 2497.44
     17.9610	 3056.00	 3173.15	-1497.34	 2499.92
     17.9870	 3030.00	 3178.21	-1528.40	 2502.40
     18.0130	 3002.00	 3183.05	-1561.24	 2504.87
     18.0390	 3229.00	 3187.65	-1338.84	 2507.35
     18.0650	 3146.00	 3191.99	-1426.18	 2509.83
     18.0910	 3129.00	 3196.05	-1447.24	 2512.31
     18.1170	 3058.00	 3199.82	-1522.01	 2514.79
     18.1430	 3052.00	 3203.29	-1531.48	 2517.27
     18.1690	 3090.00	 3206.45	-1496.64	 2519.75
     18.1950	 3057.00	 3209.29	-1532.48	 2522.23
     18.2210	 3110.00	 3211.81	-1482.00	 2524.71
     18.2470	 3151.00	 3214.02	-1443.21	 2527.19
     18.2730	 3093.00	 3215.90	-1503.09	 2529.67
     18.2990	 3046.00	 3217.48	-1551.67	 2532.15
     18.3250	 3015.00	 3218.76	-1583.95	 2534.63
     18.3510	 3017.00	 3219.74	-1582.93	 2537.11
     18.3770	 3050.00	 3220.45	-1550.64	 2539.59
     18.4030	 3040.00	 3220.89	-1561.08	 2542.06
     18.4290	 3067.00	 3221.09	-1534.28	 2544.54
     18.4550	 3152.00	 3221.06	-1449.25	 2547.02
     18.4810	 3161.00	 3220.83	-1440.02	 2549.50
     18.5070	 3056.00	 3220.41	-1544.60	 2551.98
     18.5330	 3100.00	 3219.83	-1500.02	 2554.46
     18.5590	 3027.00	 3219.11	-1572.30	 2556.94
     18.5850	 3098.00	 3218.26	-1500.45	 2559.42
     18.6110	 3091.00	 3217.30	-1506.50	 2561.90
     18.6370	 3115.00	 3216.27	-1481.46	 2564.38
     18.6630	 3149.00	 3215.17	-1446.36	 2566.86
     18.6890	 3138.00	 3214.02	-1456.21	 2569.34
     18.7150	 3087.00	 3212.84	-1506.03	 2571.82
     18.7410	 3062.00	 3211.65	-1529.84	 2574.30
     18.7670	 3124.00	 3210.45	-1466.64	 2576.78
     18.7930	 3075.00	 3209.27	-1514.46	 2579.25
     18.8190	 3100.00	 3208.11	-1488.30	 2581.73
     18.8450	 3137.00	 3206.97	-1450.17	 2584.21
     18.8710	 3125.00	 3205.89	-1461.08	 2586.69
     18.8970	 3114.00	 3204.85	-1471.04	 2589.17
     18.9230	 3087.00	 3203.86	-1497.05	 2591.65
     18.9490	 3168.00	 3202.94	-1415.13	 2594.13
     18.9750	 3118.00	 3202.09	-1464.28	 2596.61
     19.0010	 3130.00	 3201.30	-1451.49	 2599.09
     19.0270	 3137.00	 3200.59	-1443.78	 2601.57
     19.0530	 3078.00	 3199.95	-1502.15	 2604.05
     19.0790	 3016.00	 3199.40	-1563.59	 2606.53
     19.1050	 2995.00	 3198.92	-1584.11	 2609.01
     19.1310	 3054.00	 3198.52	-1524.71	 2611.49
     19.1570	 3053.00	 3198.21	-1525.40	 2613.97
     19.1830	 3127.00	 3197.97	-1451.16	 2616.45
     19.2090	 3157.00	 3197.81	-1421.00	 2618.92
     19.2350	 3106.00	 3197.73	-1471.92	 2621.40
     19.2610	 3082.00	 3197.73	-1495.92	 2623.88
     19.2870	 3090.00	 3197.81	-1488.00	 2626.36
     19.3130	 3094.00	 3197.96	-1484.15	 2628.84
     19.3390	 3123.00	 3198.19	-1455.38	 2631.32
     19.3650	 3148.00	 3198.49	-1430.68	 2633.80
     19.3910	 3127.00	 3198.85	-1452.05	 2636.28
     19.4170	 3136.00	 3199.29	-1443.48	 2638.76
     19.4430	 3098.00	 3199.80	-1481.99	 2641.24
     19.4690	 3039.00	 3200.37	-1541.56	 2643.72
     19.4950	 3034.00	 3201.00	-1547.19	 2646.20
     19.5210	 3018.00	 3201.70	-1563.89	 2648.68
     19.5470	 3085.00	 3202.45	-1497.64	 2651.16
     19.5730	 3159.00	 3203.27	-1424.46	 2653.64
     19.5990	 3152.00	 3204.13	-1432.33	 2656.11
     19.6250	 3139.00	 3205.06	-1446.25	 2658.59
     19.6510	 3157.00	 3206.03	-1429.22	 2661.07
     19.6770	 3182.00	 3207.06	-1405.25	 2663.55
     19.7030	 3112.00	 3208.13	-1476.32	 2666.03
     19.7290	 3104.00	 3209.25	-1485.44	 2668.51
     19.7550	 3120.00	 3210.42	-1470.61	 2670.99
     19.7810	 3178.00	 3211.61	-1413.80	 2673.45
     19.8070	 3150.00	 3212.65	-1442.84	 2675.72
     19.8330	 3093.00	 3213.73	-1500.92	 2677.98
     19.8590	 3136.00	 3214.85	-1459.04	 2680.25
     19.8850	 3210.00	 3216.01	-1386.20	 2682.52
     19.9110	 3208.00	 3217.21	-1389.40	 2684.78
     19.9370	 3167.00	 3218.44	-1431.63	 2687.05
     19.9630	 3223.00	 3219.70	-1376.89	 2689.32
     19.9890	 3215.00	 3221.00	-1386.19	 2691.58
     20.0150	 3202.00	 3222.33	-1400.52	 2693.85
     20.0410	 3178.00	 3223.69	-1425.88	 2696.12
     20.0670	 3160.00	 3225.08	-1445.27	 2698.38
     20.0930	 3224.00	 3226.49	-1382.68	 2700.65
     20.1190	 3267.00	 3227.94	-1341.13	 2702.92
     20.1450	 3238.00	 3229.41	-1371.60	 2705.18
     20.1710	 3192.00	 3230.90	-1419.09	 2707.45
     20.1970	 3211.00	 3232.43	-1401.62	 2709.72
     20.2230	 3212.00	 3233.97	-1402.16	 2711.99
     20.2490	 3153.00	 3235.54	-1462.73	 2714.25
     20.2750	 3133.00	 3237.13	-1484.32	 2716.52
     20.3010	 3140.00	 3238.74	-1478.93	 2718.79
     20.3270	 3157.00	 3240.37	-1463.56	 2721.05
     20.3530	 3209.00	 3242.02	-1413.21	 2723.32
     20.3790	 3199.00	 3243.69	-1424.88	 2725.59
     20.4050	 3320.00	 3245.38	-1305.57	 2727.85
     20.4310	 3252.00	 3247.08	-1375.27	 2730.12
     20.4570	 3290.00	 3248.81	-1339.00	 2732.39
     20.4830	 3356.00	 3250.55	-1274.74	 2734.65
     20.5090	 3144.00	 3252.30	-1488.49	 2736.92
     20.5350	 3292.00	 3254.08	-1342.27	 2739.19
     20.5610	 3185.00	 3255.86	-1451.05	 2741.45
     20.5870	 3238.00	 3257.66	-1399.85	 2743.72
     20.6130	 3281.00	 3259.48	-1358.67	 2745.99
     20.6390	 3371.00	 3261.31	-1270.50	 2748.25
     20.6650	 3316.00	 3263.15	-1327.34	 2750.52
     20.6910	 3164.00	 3265.01	-1481.20	 2752.79
     20.7170	 3333.00	 3266.87	-1314.06	 2755.06
     20.7430	 3367.00	 3268.75	-1281.94	 2757.32
     20.7690	 3300.00	 3270.64	-1350.83	 2759.59
     20.7950	 3242.00	 3272.54	-1410.73	 2761.86
     20.8210	 3256.00	 3274.46	-1398.65	 2764.12
     20.8470	 3231.00	 3276.38	-1425.57	 2766.39
     20.8730	 3257.00	 3278.31	-1401.50	 2768.66
     20.8990	 3321.00	 3280.26	-1339.45	 2770.92
     20.9250	 3208.00	 3282.21	-1454.40	 2773.19
     20.9510	 3373.00	 3284.17	-1291.36	 2775.46
     20.9770	 3213.00	 3286.14	-1453.33	 2777.72
     21.0030	 3259.00	 3288.12	-1409.31	 2779.99
     21.0290	 3276.00	 3290.11	-1394.30	 2782.26
     21.0550	 3159.00	 3292.11	-1513.30	 2784.52
     21.0810	 3268.00	 3294.11	-1406.30	 2786.79
     21.1070	 3326.00	 3296.13	-1350.32	 2789.06
     21.1330	 3313.00	 3298.15	-1365.34	 2791.32
     21.1590	 3310.00	 3300.17	-1370.36	 2793.59
     21.1850	 3189.00	 3302.21	-1493.40	 2795.86
     21.2110	 3348.00	 3304.25	-1336.44	 2798.13
     21.2370	 3277.00	 3306.30	-1409.49	 2800.39
     21.2630	 3305.00	 3308.35	-1383.54	 2802.66
     21.2890	 3363.00	 3310.42	-1327.61	 2804.93
     21.3150	 3375.00	 3312.48	-1317.67	 2807.19
     21.3410	 3380.00	 3314.56	-1314.75	 2809.46
     21.3670	 3311.00	 3316.64	-1385.83	 2811.73
     21.3930	 3291.00	 3318.72	-1407.91	 2813.99
     21.4190	 3299.00	 3320.81	-1402.00	 2816.26
     21.4450	 3310.00	 3322.91	-1393.10	 2818.53
     21.4710	 3276.00	 3325.01	-1429.20	 2820.79
     21.4970	 3360.00	 3327.12	-1347.31	 2823.06
     21.5230	 3322.00	 3329.23	-1387.42	 2825.33
     21.5490	 3403.00	 3331.35	-1308.54	 2827.59
     21.5750	 3404.00	 3333.47	-1309.66	 2829.86
     21.6010	 3379.00	 3335.59	-1336.79	 2832.13
     21.6270	 3384.00	 3337.73	-1333.92	 2834.39
     21.6530	 3388.00	 3339.86	-1332.05	 2836.66
     21.6790	 3346.00	 3342.00	-1376.19	 2838.93
     21.7050	 3388.00	 3344.15	-1336.34	 2841.20
     21.7310	 3370.00	 3346.29	-1356.49	 2843.46
     21.7570	 3374.00	 3348.45	-1354.64	 2845.73
     21.7830	 3354.00	 3351.27	-1377.46	 2848.67
     21.8090	 3324.00	 3354.51	-1410.70	 2852.01
     21.8350	 3356.00	 3357.75	-1381.94	 2855.35
     21.8610	 3402.00	 3360.99	-1339.18	 2858.69
     21.8870	 3389.00	 3364.24	-1355.43	 2862.04
     21.9130	 3373.00	 3367.49	-1374.68	 2865.38
     21.9390	 3425.00	 3370.75	-1325.94	 2868.72
     21.9650	 3436.00	 3374.00	-1318.19	 2872.06
     21.9910	 3393.00	 3377.26	-1364.46	 2875.41
     22.0170	 3413.00	 3380.53	-1347.72	 2878.75
     22.0430	 3483.00	 3383.80	-1280.99	 2882.09
     22.0690	 3505.00	 3387.07	-1262.26	 2885.43
     22.0950	 3432.00	 3390.34	-1338.53	 2888.78
     22.1210	 3394.00	 3393.62	-1379.81	 2892.12
     22.1470	 3439.00	 3396.90	-1338.09	 2895.46
     22.1730	 3414.00	 3400.18	-1366.37	 2898.80
     22.1990	 3414.00	 3403.47	-1369.66	 2902.15
     22.2250	 3434.00	 3406.76	-1352.95	 2905.49
     22.2510	 3400.00	 3410.05	-1390.24	 2908.83
     22.2770	 3448.00	 3413.34	-1345.53	 2912.17
     22.3030	 3425.00	 3416.64	-1371.83	 2915.51
     22.3290	 3367.00	 3419.94	-1433.13	 2918.86
     22.3550	 3405.00	 3423.24	-1398.43	 2922.20
     22.3810	 3461.00	 3426.55	-1345.74	 2925.54
     22.4070	 3487.00	 3429.85	-1323.04	 2928.88
     22.4330	 3463.00	 3433.16	-1350.35	 2932.23
     22.4590	 3451.00	 3436.48	-1365.67	 2935.57
     22.4850	 3406.00	 3439.79	-1413.98	 2938.91
     22.5110	 3543.00	 3443.11	-1280.30	 2942.25
     22.5370	 3467.00	 3446.43	-1359.62	 2945.60
     22.5630	 3502.00	 3449.75	-1327.94	 2948.94
     22.5890	 3539.00	 3453.07	-1294.26	 2952.28
     22.6150	 3466.00	 3456.40	-1370.59	 2955.62
     22.6410	 3324.00	 3459.73	-1515.92	 2958.97
     22.6670	 3427.00	 3463.06	-1416.25	 2962.31
     22.6930	 3510.00	 3466.39	-1336.58	 2965.65
     22.7190	 3556.00	 3469.73	-1293.92	 2968.99
     22.7450	 3486.00	 3473.06	-1367.25	 2972.34
     22.7710	 3460.00	 3476.40	-1396.59	 2975.68
     22.7970	 3548.00	 3479.74	-1311.93	 2979.02
     22.8230	 3457.00	 3483.09	-1406.28	 2982.36
     22.8490	 3556.00	 3486.43	-1310.62	 2985.71
     22.8750	 3532.00	 3489.78	-1337.97	 2989.05
     22.9010	 3521.00	 3493.13	-1352.32	 2992.39
     22.9270	 3527.00	 3496.48	-1349.67	 2995.73
     22.9530	 3516.00	 3499.83	-1364.02	 2999.08
     22.9790	 3468.00	 3503.19	-1415.38	 3002.42
     23.0050	 3508.00	 3506.54	-1378.74	 3005.76
     23.0310	 3540.00	 3508.26	-1348.45	 3007.46
     23.0570	 3465.00	 3509.00	-1424.19	 3008.19
     23.0830	 3424.00	 3509.75	-1465.94	 3008.91
     23.1090	 3569.00	 3510.49	-1321.68	 3009.63
     23.1350	 3550.00	 3511.24	-1341.43	 3010.36
     23.1610	 3564.00	 3511.99	-1328.18	 3011.08
     23.1870	 3545.00	 3512.74	-1347.93	 3011.81
     23.2130	 3610.00	 3513.50	-1283.69	 3012.53
     23.2390	 3605.00	 3514.25	-1289.44	 3013.25
     23.2650	 3534.00	 3515.01	-1361.20	 3013.98
     23.2910	 3510.00	 3516.35	-1386.54	 3014.70
     23.3170	 3570.00	 3517.11	-1327.30	 3015.43
     23.3430	 3567.00	 3517.87	-1331.06	 3016.15
     23.3690	 3534.00	 3518.64	-1364.83	 3016.87
     23.3950	 3525.00	 3519.70	-1374.89	 3017.60
     23.4210	 3588.00	 3520.47	-1312.66	 3018.32
     23.4470	 3551.00	 3521.24	-1350.43	 3019.05
     23.4730	 3583.00	 3522.01	-1319.20	 3019.77
     23.4990	 3668.00	 3522.78	-1234.98	 3020.49
     23.5250	 3602.00	 3523.56	-1301.75	 3021.22
     23.5510	 3589.00	 3524.34	-1315.53	 3021.94
     23.5770	 3558.00	 3525.12	-1347.31	 3022.67
     23.6030	 3495.00	 3525.90	-1411.09	 3023.39
     23.6290	 3653.00	 3526.68	-1253.87	 3024.11
     23.6550	 3521.00	 3527.47	-1386.66	 3024.84
     23.6810	 3456.00	 3528.25	-1452.44	 3025.56
     23.7070	 3536.00	 3529.04	-1373.23	 3026.29
     23.7330	 3661.00	 3529.83	-1249.02	 3027.01
     23.7590	 3672.00	 3530.62	-1238.81	 3027.73
     23.7850	 3601.00	 3531.42	-1310.61	 3028.46
     23.8110	 3665.00	 3532.21	-1247.40	 3029.18
     23.8370	 3626.00	 3533.01	-1287.20	 3029.91
     23.8630	 3584.00	 3533.81	-1330.00	 3030.63
     23.8890	 3627.00	 3534.61	-1287.80	 3031.35
     23.9150	 3564.00	 3535.41	-1351.60	 3032.08
     23.9410	 3622.00	 3536.21	-1294.40	 3032.80
     23.9670	 3677.00	 3537.02	-1240.21	 3033.53
     23.9930	 3642.00	 3537.82	-1276.01	 3034.25
     24.0190	 3631.00	 3538.63	-1287.82	 3034.97
     24.0450	 3681.00	 3539.44	-1238.63	 3035.70
     24.0710	 3606.00	 3540.25	-1314.44	 3036.42
     24.0970	 3637.00	 3541.06	-1284.26	 3037.15
     24.1230	 3647.00	 3541.88	-1275.07	 3037.87
     24.1490	 3664.00	 3542.70	-1258.89	 3038.59
     24.1750	 3633.00	 3543.52	-1290.71	 3039.32
     24.2010	 3700.00	 3544.34	-1224.53	 3040.04
     24.2270	 3658.00	 3545.16	-1267.35	 3040.77
     24.2530	 3582.00	 3545.98	-1344.17	 3041.49
     24.2790	 3637.00	 3546.81	-1290.00	 3042.22
     24.3050	 3604.00	 3547.63	-1323.82	 3042.94
     24.3310	 3627.00	 3548.46	-1301.65	 3043.66
     24.3570	 3610.00	 3549.29	-1319.48	 3044.39
     24.3830	 3547.00	 3550.13	-1383.32	 3045.11
     24.4090	 3591.00	 3550.96	-1340.15	 3045.84
     24.4350	 3597.00	 3551.80	-1334.99	 3046.56
     24.4610	 3620.00	 3552.64	-1312.83	 3047.28
     24.4870	 3619.00	 3553.48	-1314.67	 3048.01
     24.5130	 3605.00	 3554.32	-1329.51	 3048.73
     24.5390	 3647.00	 3555.16	-1288.35	 3049.46
     24.5650	 3656.00	 3556.01	-1280.20	 3050.18
     24.5910	 3667.00	 3556.85	-1270.05	 3050.90
     24.6170	 3614.00	 3557.70	-1323.89	 3051.63
     24.6430	 3581.00	 3558.56	-1357.75	 3052.35
     24.6690	 3615.00	 3559.41	-1324.60	 3053.08
     24.6950	 3598.00	 3560.26	-1342.46	 3053.80
     24.7210	 3564.00	 3561.12	-1377.31	 3054.52
     24.7470	 3589.00	 3561.98	-1353.17	 3055.25
     24.7730	 3586.00	 3562.84	-1357.03	 3055.97
     24.7990	 3580.00	 3563.71	-1363.90	 3056.70
     24.8250	 3632.00	 3564.57	-1312.76	 3057.42
     24.8510	 3589.00	 3565.44	-1356.63	 3058.14
     24.8770	 3617.00	 3566.31	-1329.50	 3058.87
     24.9030	 3659.00	 3567.18	-1288.37	 3059.59
     24.9290	 3613.00	 3568.05	-1335.25	 3060.32
     24.9550	 3626.00	 3568.93	-1323.12	 3061.04
     24.9810	 3644.00	 3569.81	-1306.00	 3061.76
     25.0070	 3603.00	 3570.69	-1347.88	 3062.49
     25.0330	 3580.00	 3571.57	-1371.76	 3063.21
     25.0590	 3625.00	 3572.46	-1327.65	 3063.94
     25.0850	 3695.00	 3573.35	-1258.54	 3064.66
     25.1110	 3716.00	 3574.23	-1238.43	 3065.38
     25.1370	 3708.00	 3575.13	-1247.32	 3066.11
     25.1630	 3696.00	 3576.02	-1260.21	 3066.83
     25.1890	 3713.00	 3576.92	-1244.11	 3067.56
     25.2150	 3734.00	 3577.82	-1224.01	 3068.28
     25.2410	 3614.00	 3578.72	-1344.91	 3069.00
     25.2670	 3614.00	 3579.62	-1345.81	 3069.73
     25.2930	 3686.00	 3580.34	-1274.53	 3070.26
     25.3190	 3698.00	 3580.93	-1263.12	 3070.66
     25.3450	 3685.00	 3581.52	-1276.71	 3071.07
     25.3710	 3626.00	 3582.11	-1336.30	 3071.47
     25.3970	 3713.00	 3582.71	-1249.90	 3071.88
     25.4230	 3612.00	 3583.31	-1351.50	 3072.28
     25.4490	 3635.00	 3583.91	-1329.10	 3072.68
