 DD67    CELL:    8.41953   8.41953   8.41953   90.0000   90.0000   90.0000   SPGR: F d -3 m               TEMP:      0.00
  2   2495     1.54056     1.54443     0.00000     0.00000     0.00000    0
    32    10     0     0     0
 2Theta	Yobs	Ycal	Yobs-Ycal	Backg	Posr	(hkl)	K
     15.0230	 2829.00	 2794.47	-1342.81	 2381.72
     15.0490	 2821.00	 2802.21	-1358.55	 2388.87
     15.0750	 2926.00	 2809.72	-1261.05	 2395.78
     15.1010	 2899.00	 2817.00	-1295.33	 2402.45
     15.1270	 2833.00	 2824.06	-1368.39	 2408.90
     15.1530	 2817.00	 2830.90	-1391.24	 2415.13
     15.1790	 2878.00	 2837.54	-1336.87	 2421.14
     15.2050	 2852.00	 2843.97	-1369.30	 2426.95
     15.2310	 2796.00	 2850.20	-1431.53	 2432.54
     15.2570	 2894.00	 2856.23	-1339.57	 2437.94
     15.2830	 2907.00	 2862.08	-1332.41	 2443.14
     15.3090	 2907.00	 2867.74	-1338.07	 2448.14
     15.3350	 2949.00	 2873.22	-1301.55	 2452.96
     15.3610	 2889.00	 2878.52	-1366.86	 2457.60
     15.3870	 2883.00	 2883.65	-1377.99	 2462.06
     15.4130	 2803.00	 2888.62	-1462.96	 2466.35
     15.4390	 2831.00	 2893.42	-1439.76	 2470.47
     15.4650	 2893.00	 2898.07	-1382.41	 2474.42
     15.4910	 2925.00	 2902.56	-1354.90	 2478.22
     15.5170	 2902.00	 2906.91	-1382.24	 2481.86
     15.5430	 2959.00	 2911.11	-1329.44	 2485.35
     15.5690	 2915.00	 2915.17	-1377.50	 2488.69
     15.5950	 2836.00	 2919.09	-1460.43	 2491.88
     15.6210	 2889.00	 2922.88	-1411.22	 2494.94
     15.6470	 2828.00	 2926.54	-1475.88	 2497.86
     15.6730	 2960.00	 2930.08	-1347.41	 2500.65
     15.6990	 2965.00	 2933.49	-1345.83	 2503.31
     15.7250	 2908.00	 2936.79	-1406.13	 2505.85
     15.7510	 2946.00	 2939.98	-1371.31	 2508.27
     15.7770	 2939.00	 2943.05	-1381.39	 2510.57
     15.8030	 2920.00	 2946.02	-1403.36	 2512.75
     15.8290	 2872.00	 2948.89	-1454.23	 2514.83
     15.8550	 2920.00	 2951.66	-1408.99	 2516.80
     15.8810	 3007.00	 2954.33	-1324.66	 2518.67
     15.9070	 2985.00	 2956.91	-1349.24	 2520.43
     15.9330	 2947.00	 2959.40	-1389.73	 2522.10
     15.9590	 2902.00	 2961.80	-1437.14	 2523.68
     15.9850	 2865.00	 2964.12	-1476.46	 2525.17
     16.0110	 2905.00	 2966.36	-1438.70	 2526.57
     16.0370	 2924.00	 2968.53	-1421.86	 2527.88
     16.0630	 2921.00	 2970.62	-1426.95	 2529.12
     16.0890	 2969.00	 2972.64	-1380.97	 2530.27
     16.1150	 2905.00	 2974.59	-1446.92	 2531.35
     16.1410	 2961.00	 2976.47	-1392.81	 2532.36
     16.1670	 2803.00	 2978.30	-1552.63	 2533.30
     16.1930	 2938.00	 2980.06	-1419.40	 2534.17
     16.2190	 2910.00	 2981.77	-1449.11	 2534.98
     16.2450	 2916.00	 2983.42	-1444.76	 2535.73
     16.2710	 2955.00	 2985.02	-1407.36	 2536.41
     16.2970	 2914.00	 2986.57	-1449.91	 2537.04
     16.3230	 2923.00	 2988.07	-1442.41	 2537.62
     16.3490	 2974.00	 2989.53	-1392.87	 2538.14
     16.3750	 2988.00	 2990.95	-1380.28	 2538.62
     16.4010	 2977.00	 2992.32	-1392.66	 2539.05
     16.4270	 3066.00	 2993.66	-1305.00	 2539.43
     16.4530	 3077.00	 2994.96	-1295.30	 2539.77
     16.4790	 2992.00	 2996.23	-1381.56	 2540.07
     16.5050	 3048.00	 2997.46	-1326.80	 2540.34
     16.5310	 2949.00	 2998.66	-1427.00	 2540.56
     16.5570	 2908.00	 2999.84	-1469.18	 2540.76
     16.5830	 2984.00	 3000.99	-1394.33	 2540.92
     16.6090	 3028.00	 3002.12	-1351.45	 2541.05
     16.6350	 3020.00	 3003.22	-1360.56	 2541.16
     16.6610	 2989.00	 3004.30	-1392.64	 2541.24
     16.6870	 2975.00	 3005.36	-1407.70	 2541.29
     16.7130	 2942.00	 3006.41	-1441.74	 2541.33
     16.7390	 2957.00	 3007.44	-1427.77	 2541.34
     16.7650	 3022.00	 3008.45	-1363.79	 2541.33
     16.7910	 3016.00	 3009.45	-1370.79	 2541.31
     16.8170	 3054.00	 3010.44	-1333.77	 2541.27
     16.8430	 3104.00	 3011.41	-1284.75	 2541.22
     16.8690	 3043.00	 3012.38	-1346.72	 2541.16
     16.8950	 3011.00	 3013.34	-1379.68	 2541.08
     16.9210	 3019.00	 3014.29	-1372.63	 2541.00
     16.9470	 3040.00	 3015.24	-1352.57	 2540.91
     16.9730	 3031.00	 3016.18	-1362.51	 2540.82
     16.9990	 2975.00	 3017.11	-1419.45	 2540.72
     17.0250	 2998.00	 3018.04	-1397.38	 2540.61
     17.0510	 3047.00	 3018.98	-1349.31	 2540.51
     17.0770	 3062.00	 3019.91	-1335.24	 2540.41
     17.1030	 3027.00	 3020.83	-1371.17	 2540.30
     17.1290	 3031.00	 3021.76	-1368.10	 2540.20
     17.1550	 3102.00	 3022.69	-1298.03	 2540.10
     17.1810	 3077.00	 3023.63	-1323.96	 2540.01
     17.2070	 3012.00	 3024.56	-1389.90	 2539.92
     17.2330	 2985.00	 3025.50	-1417.83	 2539.84
     17.2590	 3049.00	 3026.44	-1354.77	 2539.77
     17.2850	 3091.00	 3027.38	-1313.72	 2539.71
     17.3110	 3002.00	 3028.33	-1403.67	 2539.65
     17.3370	 3085.00	 3029.28	-1321.62	 2539.61
     17.3630	 3020.00	 3030.24	-1387.58	 2539.58
     17.3890	 3021.00	 3031.20	-1387.54	 2539.57
     17.4150	 3088.00	 3032.17	-1321.51	 2539.57
     17.4410	 3081.00	 3033.15	-1329.49	 2539.58
     17.4670	 3044.00	 3034.13	-1367.47	 2539.61
     17.4930	 3057.00	 3035.12	-1355.45	 2539.65
     17.5190	 3135.00	 3036.11	-1278.45	 2539.72
     17.5450	 3093.00	 3037.11	-1321.45	 2539.80
     17.5710	 3096.00	 3038.12	-1319.46	 2539.90
     17.5970	 3080.00	 3039.14	-1336.47	 2540.02
     17.6230	 3163.00	 3040.16	-1254.50	 2540.16
     17.6490	 3101.00	 3041.19	-1317.53	 2540.32
     17.6750	 3012.00	 3042.22	-1407.56	 2540.50
     17.7010	 3062.00	 3043.27	-1358.61	 2540.71
     17.7270	 3075.00	 3044.32	-1346.66	 2540.94
     17.7530	 3150.00	 3045.38	-1272.71	 2541.19
     17.7790	 3061.00	 3046.44	-1362.78	 2541.47
     17.8050	 3014.00	 3047.52	-1410.85	 2541.77
     17.8310	 3092.00	 3048.60	-1333.93	 2542.10
     17.8570	 3134.00	 3049.69	-1293.02	 2542.45
     17.8830	 3041.00	 3050.78	-1387.12	 2542.83
     17.9090	 3107.00	 3051.88	-1322.22	 2543.24
     17.9350	 3076.00	 3052.99	-1354.33	 2543.67
     17.9610	 3056.00	 3054.11	-1375.45	 2544.13
     17.9870	 3030.00	 3055.23	-1402.57	 2544.62
     18.0130	 3002.00	 3056.36	-1431.70	 2545.14
     18.0390	 3229.00	 3057.50	-1205.84	 2545.69
     18.0650	 3146.00	 3058.65	-1289.99	 2546.26
     18.0910	 3129.00	 3059.80	-1308.14	 2546.87
     18.1170	 3058.00	 3060.97	-1380.30	 2547.50
     18.1430	 3052.00	 3062.13	-1387.47	 2548.17
     18.1690	 3090.00	 3063.31	-1350.65	 2548.86
     18.1950	 3057.00	 3064.49	-1384.83	 2549.58
     18.2210	 3110.00	 3065.69	-1333.02	 2550.34
     18.2470	 3151.00	 3066.89	-1293.22	 2551.13
     18.2730	 3093.00	 3068.10	-1352.43	 2551.95
     18.2990	 3046.00	 3069.31	-1400.65	 2552.79
     18.3250	 3015.00	 3070.54	-1432.88	 2553.67
     18.3510	 3017.00	 3071.77	-1432.11	 2554.59
     18.3770	 3050.00	 3073.02	-1400.35	 2555.53
     18.4030	 3040.00	 3074.27	-1411.61	 2556.50
     18.4290	 3067.00	 3075.53	-1385.87	 2557.51
     18.4550	 3152.00	 3076.81	-1302.14	 2558.55
     18.4810	 3161.00	 3078.09	-1294.43	 2559.62
     18.5070	 3056.00	 3079.38	-1400.72	 2560.72
     18.5330	 3100.00	 3080.69	-1358.03	 2561.86
     18.5590	 3027.00	 3082.01	-1432.34	 2563.03
     18.5850	 3098.00	 3083.33	-1362.67	 2564.22
     18.6110	 3091.00	 3084.68	-1371.01	 2565.45
     18.6370	 3115.00	 3086.03	-1348.37	 2566.72
     18.6630	 3149.00	 3087.40	-1315.73	 2568.01
     18.6890	 3138.00	 3088.78	-1328.11	 2569.34
     18.7150	 3087.00	 3090.17	-1380.51	 2570.70
     18.7410	 3062.00	 3091.58	-1406.92	 2572.09
     18.7670	 3124.00	 3093.00	-1346.34	 2573.51
     18.7930	 3075.00	 3094.44	-1396.78	 2574.96
     18.8190	 3100.00	 3095.90	-1373.24	 2576.44
     18.8450	 3137.00	 3097.37	-1337.71	 2577.96
     18.8710	 3125.00	 3098.86	-1351.20	 2579.51
     18.8970	 3114.00	 3100.37	-1363.70	 2581.08
     18.9230	 3087.00	 3101.89	-1392.23	 2582.69
     18.9490	 3168.00	 3103.43	-1312.77	 2584.33
     18.9750	 3118.00	 3104.99	-1364.33	 2586.00
     19.0010	 3130.00	 3106.57	-1353.91	 2587.70
     19.0270	 3137.00	 3108.17	-1348.51	 2589.43
     19.0530	 3078.00	 3109.79	-1409.13	 2591.18
     19.0790	 3016.00	 3111.43	-1472.77	 2592.97
     19.1050	 2995.00	 3113.10	-1495.43	 2594.79
     19.1310	 3054.00	 3114.78	-1438.12	 2596.64
     19.1570	 3053.00	 3116.48	-1440.82	 2598.51
     19.1830	 3127.00	 3118.21	-1368.55	 2600.42
     19.2090	 3157.00	 3119.96	-1340.30	 2602.35
     19.2350	 3106.00	 3121.73	-1393.07	 2604.31
     19.2610	 3082.00	 3123.53	-1418.87	 2606.29
     19.2870	 3090.00	 3125.35	-1412.69	 2608.31
     19.3130	 3094.00	 3127.19	-1410.53	 2610.35
     19.3390	 3123.00	 3129.06	-1383.40	 2612.42
     19.3650	 3148.00	 3130.95	-1360.29	 2614.51
     19.3910	 3127.00	 3132.87	-1383.21	 2616.64
     19.4170	 3136.00	 3134.81	-1376.15	 2618.78
     19.4430	 3098.00	 3136.78	-1416.11	 2620.95
     19.4690	 3039.00	 3138.77	-1477.10	 2623.15
     19.4950	 3034.00	 3140.78	-1484.12	 2625.37
     19.5210	 3018.00	 3142.83	-1502.16	 2627.62
     19.5470	 3085.00	 3144.89	-1437.23	 2629.89
     19.5730	 3159.00	 3146.99	-1365.32	 2632.18
     19.5990	 3152.00	 3149.10	-1374.44	 2634.50
     19.6250	 3139.00	 3151.25	-1389.59	 2636.84
     19.6510	 3157.00	 3153.42	-1373.76	 2639.20
     19.6770	 3182.00	 3155.62	-1350.95	 2641.58
     19.7030	 3112.00	 3157.84	-1423.17	 2643.98
     19.7290	 3104.00	 3160.08	-1433.42	 2646.41
     19.7550	 3120.00	 3162.36	-1419.69	 2648.86
     19.7810	 3178.00	 3164.65	-1363.99	 2651.32
     19.8070	 3150.00	 3166.98	-1394.32	 2653.81
     19.8330	 3093.00	 3169.33	-1453.66	 2656.31
     19.8590	 3136.00	 3171.70	-1413.04	 2658.84
     19.8850	 3210.00	 3174.10	-1341.44	 2661.38
     19.9110	 3208.00	 3176.53	-1345.86	 2663.94
     19.9370	 3167.00	 3178.97	-1389.31	 2666.52
     19.9630	 3223.00	 3181.45	-1335.78	 2669.12
     19.9890	 3215.00	 3183.94	-1346.28	 2671.73
     20.0150	 3202.00	 3186.47	-1361.80	 2674.36
     20.0410	 3178.00	 3189.01	-1388.35	 2677.00
     20.0670	 3160.00	 3191.58	-1408.92	 2679.66
     20.0930	 3224.00	 3194.17	-1347.51	 2682.34
     20.1190	 3267.00	 3196.78	-1307.12	 2685.03
     20.1450	 3238.00	 3199.42	-1338.76	 2687.73
     20.1710	 3192.00	 3202.08	-1387.42	 2690.45
     20.1970	 3211.00	 3204.76	-1371.10	 2693.18
     20.2230	 3212.00	 3207.46	-1372.80	 2695.92
     20.2490	 3153.00	 3210.19	-1434.52	 2698.67
     20.2750	 3133.00	 3212.93	-1457.27	 2701.43
     20.3010	 3140.00	 3215.69	-1453.03	 2704.21
     20.3270	 3157.00	 3218.48	-1438.82	 2707.00
     20.3530	 3209.00	 3221.28	-1389.62	 2709.79
     20.3790	 3199.00	 3224.11	-1402.44	 2712.60
     20.4050	 3320.00	 3226.95	-1284.28	 2715.41
     20.4310	 3252.00	 3229.81	-1355.14	 2718.23
     20.4570	 3290.00	 3232.69	-1320.02	 2721.06
     20.4830	 3356.00	 3235.58	-1256.92	 2723.90
     20.5090	 3144.00	 3238.49	-1471.83	 2726.75
     20.5350	 3292.00	 3241.42	-1326.76	 2729.60
     20.5610	 3185.00	 3244.37	-1436.70	 2732.46
     20.5870	 3238.00	 3247.33	-1386.67	 2735.32
     20.6130	 3281.00	 3250.30	-1346.64	 2738.18
     20.6390	 3371.00	 3253.29	-1259.63	 2741.06
     20.6650	 3316.00	 3256.30	-1317.64	 2743.93
     20.6910	 3164.00	 3259.32	-1472.65	 2746.81
     20.7170	 3333.00	 3262.35	-1306.68	 2749.69
     20.7430	 3367.00	 3265.39	-1275.73	 2752.58
     20.7690	 3300.00	 3268.45	-1345.78	 2755.46
     20.7950	 3242.00	 3271.52	-1406.85	 2758.35
     20.8210	 3256.00	 3274.59	-1395.93	 2761.24
     20.8470	 3231.00	 3277.68	-1424.02	 2764.12
     20.8730	 3257.00	 3280.78	-1401.12	 2767.01
     20.8990	 3321.00	 3283.89	-1340.23	 2769.90
     20.9250	 3208.00	 3287.01	-1456.35	 2772.78
     20.9510	 3373.00	 3290.14	-1294.48	 2775.67
     20.9770	 3213.00	 3293.27	-1457.61	 2778.55
     21.0030	 3259.00	 3296.42	-1414.75	 2781.43
     21.0290	 3276.00	 3299.57	-1400.90	 2784.30
     21.0550	 3159.00	 3302.72	-1521.06	 2787.17
     21.0810	 3268.00	 3305.88	-1415.22	 2790.04
     21.1070	 3326.00	 3309.05	-1360.39	 2792.90
     21.1330	 3313.00	 3312.22	-1376.56	 2795.76
     21.1590	 3310.00	 3315.40	-1382.74	 2798.61
     21.1850	 3189.00	 3318.58	-1506.92	 2801.45
     21.2110	 3348.00	 3321.77	-1351.10	 2804.29
     21.2370	 3277.00	 3324.95	-1425.29	 2807.12
     21.2630	 3305.00	 3328.15	-1400.48	 2809.94
     21.2890	 3363.00	 3331.34	-1345.67	 2812.76
     21.3150	 3375.00	 3334.53	-1336.87	 2815.56
     21.3410	 3380.00	 3337.72	-1335.06	 2818.36
     21.3670	 3311.00	 3340.92	-1407.26	 2821.14
     21.3930	 3291.00	 3344.11	-1430.45	 2823.92
     21.4190	 3299.00	 3347.31	-1425.65	 2826.68
     21.4450	 3310.00	 3350.50	-1417.84	 2829.44
     21.4710	 3276.00	 3353.69	-1455.03	 2832.18
     21.4970	 3360.00	 3356.88	-1374.22	 2834.91
     21.5230	 3322.00	 3360.07	-1415.41	 2837.62
     21.5490	 3403.00	 3363.85	-1338.19	 2840.32
     21.5750	 3404.00	 3367.03	-1340.37	 2843.01
     21.6010	 3379.00	 3370.21	-1368.54	 2845.69
     21.6270	 3384.00	 3373.38	-1366.72	 2848.35
     21.6530	 3388.00	 3376.85	-1366.18	 2850.99
     21.6790	 3346.00	 3380.01	-1411.35	 2853.62
     21.7050	 3388.00	 3383.17	-1372.50	 2856.24
     21.7310	 3370.00	 3386.32	-1393.65	 2858.83
     21.7570	 3374.00	 3389.46	-1392.80	 2861.41
     21.7830	 3354.00	 3392.60	-1415.94	 2863.97
     21.8090	 3324.00	 3395.73	-1449.06	 2866.52
     21.8350	 3356.00	 3398.85	-1420.19	 2869.04
     21.8610	 3402.00	 3401.96	-1377.30	 2871.55
     21.8870	 3389.00	 3405.06	-1393.40	 2874.04
     21.9130	 3373.00	 3408.16	-1412.50	 2876.51
     21.9390	 3425.00	 3411.24	-1363.58	 2878.95
     21.9650	 3436.00	 3414.32	-1355.65	 2881.38
     21.9910	 3393.00	 3417.38	-1401.72	 2883.79
     22.0170	 3413.00	 3420.43	-1384.77	 2886.17
     22.0430	 3483.00	 3423.47	-1317.81	 2888.53
     22.0690	 3505.00	 3426.50	-1298.83	 2890.87
     22.0950	 3432.00	 3429.51	-1374.85	 2893.19
     22.1210	 3394.00	 3432.52	-1415.85	 2895.49
     22.1470	 3439.00	 3435.51	-1373.84	 2897.76
     22.1730	 3414.00	 3438.48	-1401.82	 2900.00
     22.1990	 3414.00	 3441.44	-1404.78	 2902.23
     22.2250	 3434.00	 3444.39	-1387.73	 2904.42
     22.2510	 3400.00	 3447.32	-1424.66	 2906.60
     22.2770	 3448.00	 3450.24	-1379.58	 2908.74
     22.3030	 3425.00	 3453.14	-1405.48	 2910.86
     22.3290	 3367.00	 3456.03	-1466.37	 2912.96
     22.3550	 3405.00	 3458.90	-1431.24	 2915.02
     22.3810	 3461.00	 3461.75	-1378.09	 2917.07
     22.4070	 3487.00	 3464.59	-1354.92	 2919.08
     22.4330	 3463.00	 3467.41	-1381.74	 2921.06
     22.4590	 3451.00	 3470.21	-1396.55	 2923.02
     22.4850	 3406.00	 3472.99	-1444.33	 2924.95
     22.5110	 3543.00	 3475.76	-1310.09	 2926.85
     22.5370	 3467.00	 3478.50	-1388.84	 2928.72
     22.5630	 3502.00	 3481.23	-1356.57	 2930.55
     22.5890	 3539.00	 3483.94	-1322.28	 2932.36
     22.6150	 3466.00	 3486.63	-1397.97	 2934.14
     22.6410	 3324.00	 3489.30	-1542.64	 2935.89
     22.6670	 3427.00	 3491.95	-1442.29	 2937.61
     22.6930	 3510.00	 3494.58	-1361.91	 2939.29
     22.7190	 3556.00	 3497.19	-1318.52	 2940.95
     22.7450	 3486.00	 3499.77	-1391.11	 2942.57
     22.7710	 3460.00	 3502.34	-1419.68	 2944.16
     22.7970	 3548.00	 3504.88	-1334.22	 2945.72
     22.8230	 3457.00	 3507.41	-1427.74	 2947.24
     22.8490	 3556.00	 3509.91	-1331.24	 2948.73
     22.8750	 3532.00	 3512.39	-1357.72	 2950.19
     22.9010	 3521.00	 3514.84	-1371.18	 2951.61
     22.9270	 3527.00	 3517.27	-1367.61	 2953.00
     22.9530	 3516.00	 3519.69	-1381.02	 2954.35
     22.9790	 3468.00	 3522.07	-1431.41	 2955.67
     23.0050	 3508.00	 3524.44	-1393.77	 2956.95
     23.0310	 3540.00	 3526.78	-1364.11	 2958.20
     23.0570	 3465.00	 3529.09	-1441.43	 2959.41
     23.0830	 3424.00	 3531.39	-1484.72	 2960.58
     23.1090	 3569.00	 3533.65	-1341.99	 2961.72
     23.1350	 3550.00	 3535.90	-1363.23	 2962.83
     23.1610	 3564.00	 3538.12	-1351.45	 2963.89
     23.1870	 3545.00	 3540.31	-1372.65	 2964.92
     23.2130	 3610.00	 3542.48	-1309.82	 2965.91
     23.2390	 3605.00	 3544.63	-1316.96	 2966.87
     23.2650	 3534.00	 3546.75	-1390.08	 2967.78
     23.2910	 3510.00	 3548.84	-1416.18	 2968.66
     23.3170	 3570.00	 3550.91	-1358.25	 2969.50
     23.3430	 3567.00	 3552.95	-1363.29	 2970.30
     23.3690	 3534.00	 3554.97	-1398.31	 2971.06
     23.3950	 3525.00	 3556.96	-1409.30	 2971.78
     23.4210	 3588.00	 3558.93	-1348.26	 2972.47
     23.4470	 3551.00	 3560.86	-1387.20	 2973.11
     23.4730	 3583.00	 3562.78	-1357.11	 2973.71
     23.4990	 3668.00	 3564.66	-1274.00	 2974.28
     23.5250	 3602.00	 3566.52	-1341.86	 2974.80
     23.5510	 3589.00	 3568.36	-1356.70	 2975.29
     23.5770	 3558.00	 3570.17	-1389.50	 2975.73
     23.6030	 3495.00	 3571.95	-1454.28	 2976.13
     23.6290	 3653.00	 3573.70	-1298.04	 2976.49
     23.6550	 3521.00	 3575.43	-1431.76	 2976.81
     23.6810	 3456.00	 3577.13	-1498.46	 2977.09
     23.7070	 3536.00	 3578.80	-1420.14	 2977.33
     23.7330	 3661.00	 3580.45	-1296.78	 2977.53
     23.7590	 3672.00	 3582.07	-1287.40	 2977.68
     23.7850	 3601.00	 3583.66	-1359.99	 2977.80
     23.8110	 3665.00	 3585.22	-1297.56	 2977.87
     23.8370	 3626.00	 3586.76	-1338.10	 2977.89
     23.8630	 3584.00	 3588.27	-1381.61	 2977.88
     23.8890	 3627.00	 3589.76	-1340.10	 2977.82
     23.9150	 3564.00	 3591.22	-1404.55	 2977.72
     23.9410	 3622.00	 3592.65	-1347.98	 2977.58
     23.9670	 3677.00	 3594.05	-1294.39	 2977.40
     23.9930	 3642.00	 3595.43	-1330.76	 2977.17
     24.0190	 3631.00	 3596.78	-1343.11	 2976.90
     24.0450	 3681.00	 3598.10	-1294.44	 2976.58
     24.0710	 3606.00	 3599.39	-1370.73	 2976.22
     24.0970	 3637.00	 3600.66	-1341.00	 2975.82
     24.1230	 3647.00	 3601.91	-1332.24	 2975.38
     24.1490	 3664.00	 3603.12	-1316.46	 2974.89
     24.1750	 3633.00	 3604.31	-1348.65	 2974.36
     24.2010	 3700.00	 3605.48	-1282.81	 2973.78
     24.2270	 3658.00	 3606.61	-1325.95	 2973.16
     24.2530	 3582.00	 3607.72	-1403.06	 2972.49
     24.2790	 3637.00	 3608.81	-1349.14	 2971.78
     24.3050	 3604.00	 3609.87	-1383.20	 2971.03
     24.3310	 3627.00	 3610.90	-1361.23	 2970.23
     24.3570	 3610.00	 3611.90	-1379.24	 2969.39
     24.3830	 3547.00	 3612.89	-1443.22	 2968.50
     24.4090	 3591.00	 3613.84	-1400.18	 2967.57
     24.4350	 3597.00	 3614.77	-1395.11	 2966.60
     24.4610	 3620.00	 3615.68	-1373.01	 2965.58
     24.4870	 3619.00	 3616.56	-1374.89	 2964.51
     24.5130	 3605.00	 3617.41	-1389.75	 2963.40
     24.5390	 3647.00	 3618.24	-1348.58	 2962.25
     24.5650	 3656.00	 3619.05	-1340.39	 2961.05
     24.5910	 3667.00	 3619.83	-1330.17	 2959.80
     24.6170	 3614.00	 3620.59	-1383.93	 2958.51
     24.6430	 3581.00	 3621.33	-1417.66	 2957.18
     24.6690	 3615.00	 3622.04	-1384.37	 2955.80
     24.6950	 3598.00	 3622.72	-1402.06	 2954.38
     24.7210	 3564.00	 3623.39	-1436.72	 2952.91
     24.7470	 3589.00	 3624.03	-1412.37	 2951.40
     24.7730	 3586.00	 3624.65	-1415.99	 2949.84
     24.7990	 3580.00	 3625.24	-1422.58	 2948.23
     24.8250	 3632.00	 3625.82	-1371.16	 2946.59
     24.8510	 3589.00	 3626.37	-1414.71	 2944.89
     24.8770	 3617.00	 3626.90	-1387.24	 2943.15
     24.9030	 3659.00	 3627.41	-1345.75	 2941.37
     24.9290	 3613.00	 3627.90	-1392.24	 2939.54
     24.9550	 3626.00	 3628.37	-1379.71	 2937.67
     24.9810	 3644.00	 3628.82	-1362.16	 2935.75
     25.0070	 3603.00	 3629.25	-1403.58	 2933.79
     25.0330	 3580.00	 3629.66	-1426.99	 2931.78
     25.0590	 3625.00	 3630.04	-1382.38	 2929.73
     25.0850	 3695.00	 3630.42	-1312.75	 2927.63
     25.1110	 3716.00	 3630.77	-1292.10	 2925.49
     25.1370	 3708.00	 3631.10	-1300.44	 2923.31
     25.1630	 3696.00	 3631.42	-1312.75	 2921.08
     25.1890	 3713.00	 3631.71	-1296.05	 2918.80
     25.2150	 3734.00	 3632.00	-1275.33	 2916.48
     25.2410	 3614.00	 3632.26	-1395.60	 2914.12
     25.2670	 3614.00	 3632.51	-1395.85	 2911.71
     25.2930	 3686.00	 3632.74	-1324.08	 2909.26
     25.3190	 3698.00	 3632.96	-1312.30	 2906.76
     25.3450	 3685.00	 3633.16	-1325.50	 2904.22
     25.3710	 3626.00	 3633.35	-1384.69	 2901.64
     25.3970	 3713.00	 3633.52	-1297.86	 2899.01
     25.4230	 3612.00	 3633.68	-1399.02	 2896.34
     25.4490	 3635.00	 3633.83	-1376.17	 2893.62
