 PMK18    CELL:    8.38427   8.38427   8.38427   90.0000   90.0000   90.0000   SPGR: F d -3 m               TEMP:      0.00
  2   2461     1.54056     1.54443     0.00000     0.00000     0.00000    0
    30     8     0     0     0
 2Theta	Yobs	Ycal	Yobs-Ycal	Backg	Posr	(hkl)	K
     15.0210	 5151.00	 5053.42	-1920.67	 4324.60
     15.0470	 5178.00	 5055.88	-1896.13	 4326.68
     15.0730	 5157.00	 5058.34	-1919.59	 4328.77
     15.0990	 5162.00	 5060.82	-1917.07	 4330.86
     15.1250	 5045.00	 5063.30	-2036.55	 4332.95
     15.1510	 5167.00	 5065.79	-1917.04	 4335.04
     15.1770	 5203.00	 5068.29	-1883.54	 4337.13
     15.2030	 5125.00	 5070.79	-1964.04	 4339.21
     15.2290	 5160.00	 5073.30	-1931.55	 4341.30
     15.2550	 5166.00	 5075.82	-1928.07	 4343.39
     15.2810	 5236.00	 5078.35	-1860.60	 4345.48
     15.3070	 5251.00	 5080.89	-1848.14	 4347.57
     15.3330	 5161.00	 5083.44	-1940.69	 4349.66
     15.3590	 5151.00	 5085.99	-1953.24	 4351.74
     15.3850	 5083.00	 5088.56	-2023.81	 4353.83
     15.4110	 5179.00	 5091.14	-1930.39	 4355.92
     15.4370	 5238.00	 5093.72	-1873.97	 4358.01
     15.4630	 5142.00	 5096.32	-1972.57	 4360.10
     15.4890	 5221.00	 5098.92	-1896.17	 4362.19
     15.5150	 5338.00	 5101.54	-1781.79	 4364.27
     15.5410	 5163.00	 5104.17	-1959.42	 4366.36
     15.5670	 5325.00	 5106.81	-1800.06	 4368.45
     15.5930	 5061.00	 5109.46	-2066.71	 4370.54
     15.6190	 5218.00	 5112.12	-1912.37	 4372.63
     15.6450	 5190.00	 5114.80	-1943.05	 4374.72
     15.6710	 5169.00	 5117.49	-1966.74	 4376.80
     15.6970	 5148.00	 5120.19	-1990.44	 4378.89
     15.7230	 5155.00	 5122.91	-1986.16	 4380.98
     15.7490	 5133.00	 5125.64	-2010.89	 4383.07
     15.7750	 5199.00	 5128.38	-1947.63	 4385.16
     15.8010	 5197.00	 5131.14	-1952.39	 4387.25
     15.8270	 5103.00	 5133.91	-2049.16	 4389.33
     15.8530	 5168.00	 5136.70	-1986.95	 4391.42
     15.8790	 5190.00	 5139.51	-1967.76	 4393.51
     15.9050	 5321.00	 5142.33	-1839.58	 4395.60
     15.9310	 5172.00	 5145.17	-1991.42	 4397.69
     15.9570	 5091.00	 5148.03	-2075.28	 4399.78
     15.9830	 5284.00	 5150.91	-1885.16	 4401.86
     16.0090	 5166.00	 5153.80	-2006.05	 4403.95
     16.0350	 5230.00	 5156.72	-1944.97	 4406.04
     16.0610	 5325.00	 5159.65	-1852.90	 4408.13
     16.0870	 5221.00	 5163.93	-1961.18	 4411.54
     16.1130	 5216.00	 5169.70	-1971.95	 4416.43
     16.1390	 5249.00	 5175.50	-1944.75	 4421.31
     16.1650	 5274.00	 5181.31	-1925.56	 4426.20
     16.1910	 5142.00	 5187.16	-2063.41	 4431.09
     16.2170	 5173.00	 5193.02	-2038.27	 4435.97
     16.2430	 5281.00	 5198.91	-1936.16	 4440.86
     16.2690	 5189.00	 5204.83	-2034.08	 4445.75
     16.2950	 5160.00	 5210.77	-2069.02	 4450.63
     16.3210	 5274.00	 5216.73	-1960.98	 4455.52
     16.3470	 5224.00	 5222.73	-2016.98	 4460.41
     16.3730	 5254.00	 5228.75	-1993.00	 4465.29
     16.3990	 5314.00	 5234.81	-1939.06	 4470.18
     16.4250	 5190.00	 5240.89	-2069.14	 4475.07
     16.4510	 5313.00	 5247.01	-1952.26	 4479.95
     16.4770	 5341.00	 5253.15	-1930.40	 4484.84
     16.5030	 5305.00	 5259.33	-1972.58	 4489.73
     16.5290	 5394.00	 5265.55	-1889.80	 4494.61
     16.5550	 5384.00	 5271.80	-1906.05	 4499.50
     16.5810	 5241.00	 5278.08	-2055.33	 4504.39
     16.6070	 5205.00	 5284.41	-2097.66	 4509.27
     16.6330	 5148.00	 5290.77	-2161.02	 4514.16
     16.6590	 5208.00	 5297.17	-2107.42	 4519.05
     16.6850	 5366.00	 5303.61	-1955.86	 4523.93
     16.7110	 5354.00	 5310.09	-1974.34	 4528.82
     16.7370	 5334.00	 5316.61	-2000.86	 4533.71
     16.7630	 5393.00	 5323.18	-1948.43	 4538.59
     16.7890	 5344.00	 5329.79	-2004.04	 4543.48
     16.8150	 5322.00	 5336.45	-2032.70	 4548.37
     16.8410	 5415.00	 5343.16	-1946.41	 4553.25
     16.8670	 5426.00	 5349.91	-1942.16	 4558.14
     16.8930	 5433.00	 5356.71	-1941.96	 4563.02
     16.9190	 5411.00	 5365.19	-1972.44	 4569.54
     16.9450	 5290.00	 5376.78	-2105.03	 4579.11
     16.9710	 5356.00	 5388.43	-2050.68	 4588.69
     16.9970	 5527.00	 5400.13	-1891.38	 4598.26
     17.0230	 5487.00	 5411.89	-1943.14	 4607.84
     17.0490	 5428.00	 5423.70	-2013.95	 4617.41
     17.0750	 5432.00	 5435.56	-2021.81	 4626.99
     17.1010	 5367.00	 5447.48	-2098.73	 4636.57
     17.1270	 5485.00	 5459.46	-1992.71	 4646.14
     17.1530	 5541.00	 5471.50	-1948.75	 4655.72
     17.1790	 5520.00	 5483.60	-1981.85	 4665.29
     17.2050	 5622.00	 5495.75	-1892.00	 4674.87
     17.2310	 5520.00	 5507.96	-2006.21	 4684.45
     17.2570	 5556.00	 5520.23	-1982.48	 4694.02
     17.2830	 5526.00	 5532.56	-2024.81	 4703.60
     17.3090	 5539.00	 5544.95	-2024.20	 4713.17
     17.3350	 5569.00	 5557.39	-2006.64	 4722.75
     17.3610	 5587.00	 5569.89	-2001.14	 4732.33
     17.3870	 5583.00	 5582.44	-2017.69	 4741.90
     17.4130	 5547.00	 5595.05	-2066.30	 4751.48
     17.4390	 5569.00	 5607.70	-2056.95	 4761.05
     17.4650	 5554.00	 5620.40	-2084.65	 4770.63
     17.4910	 5556.00	 5633.15	-2095.40	 4780.21
     17.5170	 5621.00	 5645.94	-2043.19	 4789.78
     17.5430	 5667.00	 5658.76	-2010.01	 4799.36
     17.5690	 5550.00	 5671.62	-2139.87	 4808.93
     17.5950	 5689.00	 5684.50	-2013.75	 4818.51
     17.6210	 5794.00	 5697.41	-1921.66	 4828.09
     17.6470	 5628.00	 5710.33	-2100.58	 4837.66
     17.6730	 5633.00	 5723.26	-2108.51	 4847.24
     17.6990	 5639.00	 5736.19	-2115.44	 4856.81
     17.7250	 5714.00	 5749.11	-2053.36	 4866.39
     17.7510	 5632.00	 5762.02	-2148.27	 4875.97
     17.7770	 5606.00	 5774.90	-2187.15	 4885.54
     17.8030	 5767.00	 5786.05	-2037.30	 4893.42
     17.8290	 5796.00	 5795.46	-2017.71	 4899.60
     17.8550	 5813.00	 5805.08	-2010.33	 4905.78
     17.8810	 5772.00	 5814.37	-2060.62	 4911.96
     17.9070	 5676.00	 5823.57	-2165.82	 4918.14
     17.9330	 5737.00	 5832.69	-2113.94	 4924.32
     17.9590	 5729.00	 5841.83	-2131.08	 4930.50
     17.9850	 5749.00	 5850.73	-2119.98	 4936.67
     18.0110	 5644.00	 5859.49	-2233.74	 4942.85
     18.0370	 5800.00	 5868.11	-2086.36	 4949.03
     18.0630	 5694.00	 5876.58	-2200.83	 4955.21
     18.0890	 5740.00	 5884.89	-2163.14	 4961.39
     18.1150	 5792.00	 5893.02	-2119.27	 4967.57
     18.1410	 5786.00	 5900.96	-2133.21	 4973.75
     18.1670	 5734.00	 5908.71	-2192.96	 4979.93
     18.1930	 5741.00	 5916.25	-2193.50	 4986.11
     18.2190	 5916.00	 5923.58	-2025.83	 4992.29
     18.2450	 5814.00	 5930.69	-2134.94	 4998.47
     18.2710	 5707.00	 5937.58	-2248.83	 5004.65
     18.2970	 5751.00	 5944.24	-2211.49	 5010.83
     18.3230	 5750.00	 5950.66	-2218.91	 5017.01
     18.3490	 5808.00	 5956.86	-2167.11	 5023.19
     18.3750	 5972.00	 5962.82	-2009.07	 5029.36
     18.4010	 5849.00	 5968.56	-2137.81	 5035.54
     18.4270	 5953.00	 5974.06	-2039.31	 5041.72
     18.4530	 5919.00	 5979.35	-2078.60	 5047.90
     18.4790	 5797.00	 5984.42	-2205.67	 5054.08
     18.5050	 5915.00	 5989.28	-2092.53	 5060.26
     18.5310	 5993.00	 5993.95	-2019.20	 5066.44
     18.5570	 5938.00	 5998.42	-2078.67	 5072.62
     18.5830	 5869.00	 6002.71	-2151.96	 5078.80
     18.6090	 5955.00	 6006.84	-2070.09	 5084.98
     18.6350	 5962.00	 6010.81	-2067.06	 5091.16
     18.6610	 5943.00	 6014.63	-2089.88	 5097.34
     18.6870	 5824.00	 6018.32	-2212.57	 5103.52
     18.7130	 5946.00	 6021.88	-2094.13	 5109.70
     18.7390	 5878.00	 6025.34	-2165.59	 5115.88
     18.7650	 5829.00	 6028.71	-2217.96	 5122.06
     18.7910	 5858.00	 6031.99	-2192.24	 5128.23
     18.8170	 5929.00	 6035.19	-2124.44	 5134.41
     18.8430	 5932.00	 6038.34	-2124.59	 5140.59
     18.8690	 5949.00	 6041.44	-2110.69	 5146.77
     18.8950	 6018.00	 6044.50	-2044.75	 5152.95
     18.9210	 6197.00	 6047.53	-1868.78	 5159.13
     18.9470	 6108.00	 6050.55	-1960.80	 5165.31
     18.9730	 6088.00	 6053.55	-1983.80	 5171.49
     18.9990	 6074.00	 6056.55	-2000.80	 5177.67
     19.0250	 6038.00	 6059.56	-2039.81	 5183.85
     19.0510	 6025.00	 6062.58	-2055.83	 5190.03
     19.0770	 6076.00	 6065.62	-2007.88	 5196.21
     19.1030	 6029.00	 6068.69	-2057.94	 5202.39
     19.1290	 6021.00	 6071.79	-2069.04	 5208.57
     19.1550	 5972.00	 6071.58	-2117.83	 5211.40
     19.1810	 5988.00	 6070.90	-2101.15	 5213.73
     19.2070	 5882.00	 6070.27	-2206.52	 5216.06
     19.2330	 5923.00	 6069.68	-2164.93	 5218.39
     19.2590	 5979.00	 6069.14	-2108.39	 5220.72
     19.2850	 6037.00	 6068.66	-2049.91	 5223.05
     19.3110	 6020.00	 6068.23	-2066.48	 5225.38
     19.3370	 5936.00	 6067.85	-2150.10	 5227.71
     19.3630	 6015.00	 6067.53	-2070.78	 5230.04
     19.3890	 6004.00	 6067.27	-2081.52	 5232.38
     19.4150	 6006.00	 6067.06	-2079.31	 5234.71
     19.4410	 6058.00	 6066.91	-2027.16	 5237.04
     19.4670	 6132.00	 6066.83	-1953.08	 5239.37
     19.4930	 6151.00	 6066.80	-1934.05	 5241.70
     19.5190	 6076.00	 6066.83	-2009.08	 5244.03
     19.5450	 6183.00	 6066.92	-1902.17	 5246.36
     19.5710	 6228.00	 6067.06	-1857.31	 5248.69
     19.5970	 6175.00	 6067.26	-1910.51	 5251.02
     19.6230	 6162.00	 6067.52	-1923.77	 5253.35
     19.6490	 6116.00	 6067.84	-1970.09	 5255.68
     19.6750	 6062.00	 6068.21	-2024.46	 5258.01
     19.7010	 5978.00	 6068.64	-2108.89	 5260.34
     19.7270	 6050.00	 6069.11	-2037.36	 5262.67
     19.7530	 6123.00	 6069.64	-1964.89	 5265.00
     19.7790	 6093.00	 6070.23	-1995.48	 5267.33
     19.8050	 6127.00	 6070.86	-1962.11	 5269.66
     19.8310	 6095.00	 6071.54	-1994.79	 5271.99
     19.8570	 6008.00	 6072.27	-2082.52	 5274.33
     19.8830	 6024.00	 6073.04	-2067.29	 5276.66
     19.9090	 6023.00	 6073.86	-2069.11	 5278.99
     19.9350	 6059.00	 6074.73	-2033.98	 5281.32
     19.9610	 6011.00	 6075.64	-2082.89	 5283.65
     19.9870	 6018.00	 6076.59	-2076.84	 5285.98
     20.0130	 6072.00	 6077.58	-2023.83	 5288.31
     20.0390	 5982.00	 6078.61	-2114.86	 5290.64
     20.0650	 6007.00	 6079.68	-2090.93	 5292.97
     20.0910	 6087.00	 6080.79	-2012.04	 5295.30
     20.1170	 6121.00	 6081.94	-1979.19	 5297.63
     20.1430	 6008.00	 6083.12	-2093.37	 5299.96
     20.1690	 6029.00	 6084.34	-2073.59	 5302.29
     20.1950	 6033.00	 6085.59	-2070.84	 5304.62
     20.2210	 6087.00	 6086.87	-2018.12	 5306.95
     20.2470	 6016.00	 6088.19	-2090.44	 5309.28
     20.2730	 6115.00	 6089.54	-1992.79	 5311.61
     20.2990	 6048.00	 6090.91	-2061.16	 5313.94
     20.3250	 6012.00	 6092.32	-2098.57	 5316.27
     20.3510	 6149.00	 6093.76	-1963.01	 5318.61
     20.3770	 6108.00	 6095.22	-2005.47	 5320.94
     20.4030	 6179.00	 6096.71	-1935.96	 5323.27
     20.4290	 6028.00	 6098.23	-2088.48	 5325.60
     20.4550	 5981.00	 6099.77	-2137.02	 5327.93
     20.4810	 6130.00	 6101.34	-1989.59	 5330.26
     20.5070	 6107.00	 6102.93	-2014.18	 5332.59
     20.5330	 6092.00	 6104.54	-2030.79	 5334.92
     20.5590	 5996.00	 6106.18	-2128.43	 5337.25
     20.5850	 6097.00	 6107.84	-2029.09	 5339.58
     20.6110	 5978.00	 6109.52	-2149.77	 5341.91
     20.6370	 6041.00	 6111.22	-2088.47	 5344.24
     20.6630	 6090.00	 6112.94	-2041.19	 5346.57
     20.6890	 6058.00	 6114.68	-2074.93	 5348.90
     20.7150	 6083.00	 6116.44	-2051.69	 5351.23
     20.7410	 6240.00	 6118.22	-1896.47	 5353.56
     20.7670	 6146.00	 6120.02	-1992.27	 5355.89
     20.7930	 6108.00	 6121.83	-2032.08	 5358.23
     20.8190	 6338.00	 6123.66	-1803.91	 5360.56
     20.8450	 6230.00	 6125.51	-1913.76	 5362.89
     20.8710	 6139.00	 6127.38	-2006.63	 5365.22
     20.8970	 6168.00	 6129.26	-1979.51	 5367.55
     20.9230	 6191.00	 6131.15	-1958.40	 5369.88
     20.9490	 6280.00	 6133.06	-1871.31	 5372.21
     20.9750	 6325.00	 6134.99	-1828.24	 5374.54
     21.0010	 6108.00	 6137.10	-2047.35	 5377.04
     21.0270	 6336.00	 6140.09	-1822.34	 5380.40
     21.0530	 6162.00	 6143.09	-1999.34	 5383.77
     21.0790	 6144.00	 6146.10	-2020.35	 5387.14
     21.1050	 6230.00	 6149.13	-1937.38	 5390.50
     21.1310	 6304.00	 6152.17	-1866.42	 5393.87
     21.1570	 6098.00	 6155.23	-2075.48	 5397.24
     21.1830	 6159.00	 6158.29	-2017.54	 5400.60
     21.2090	 6189.00	 6161.37	-1990.62	 5403.97
     21.2350	 6262.00	 6164.46	-1920.71	 5407.33
     21.2610	 6321.00	 6167.56	-1864.81	 5410.70
     21.2870	 6292.00	 6170.67	-1896.92	 5414.07
     21.3130	 6280.00	 6173.79	-1912.04	 5417.43
     21.3390	 6291.00	 6176.92	-1904.17	 5420.80
     21.3650	 6342.00	 6180.06	-1856.31	 5424.17
     21.3910	 6323.00	 6183.21	-1878.46	 5427.53
     21.4170	 6179.00	 6186.37	-2025.62	 5430.90
     21.4430	 6202.00	 6189.54	-2005.79	 5434.27
     21.4690	 6310.00	 6192.72	-1900.97	 5437.63
     21.4950	 6274.00	 6195.90	-1940.15	 5441.00
     21.5210	 6266.00	 6199.10	-1951.35	 5444.36
     21.5470	 6342.00	 6202.31	-1878.56	 5447.73
     21.5730	 6310.00	 6205.52	-1913.77	 5451.10
     21.5990	 6341.00	 6208.74	-1885.99	 5454.46
     21.6250	 6298.00	 6211.97	-1932.22	 5457.83
     21.6510	 6270.00	 6215.21	-1963.46	 5461.20
     21.6770	 6404.00	 6218.45	-1832.70	 5464.56
     21.7030	 6420.00	 6221.71	-1819.96	 5467.93
     21.7290	 6368.00	 6224.97	-1875.22	 5471.29
     21.7550	 6333.00	 6228.24	-1913.49	 5474.66
     21.7810	 6389.00	 6231.51	-1860.76	 5478.03
     21.8070	 6396.00	 6234.79	-1857.04	 5481.39
     21.8330	 6401.00	 6238.08	-1855.33	 5484.76
     21.8590	 6336.00	 6241.38	-1923.63	 5488.13
     21.8850	 6274.00	 6244.68	-1988.93	 5491.49
     21.9110	 6295.00	 6247.99	-1971.24	 5494.86
     21.9370	 6305.00	 6251.31	-1964.56	 5498.23
     21.9630	 6294.00	 6254.63	-1978.88	 5501.59
     21.9890	 6268.00	 6257.96	-2008.21	 5504.96
     22.0150	 6279.00	 6261.30	-2000.55	 5508.33
     22.0410	 6362.00	 6264.64	-1920.89	 5511.69
     22.0670	 6443.00	 6267.98	-1843.23	 5515.06
     22.0930	 6359.00	 6271.34	-1930.59	 5518.42
     22.1190	 6303.00	 6274.70	-1989.95	 5521.79
     22.1450	 6437.00	 6278.06	-1859.31	 5525.16
     22.1710	 6470.00	 6281.43	-1829.68	 5528.52
     22.1970	 6375.00	 6284.81	-1928.06	 5531.89
     22.2230	 6342.00	 6288.19	-1964.44	 5535.26
     22.2490	 6428.00	 6291.58	-1881.83	 5538.62
     22.2750	 6483.00	 6294.97	-1830.22	 5541.99
     22.3010	 6411.00	 6298.37	-1905.62	 5545.35
     22.3270	 6351.00	 6301.77	-1969.02	 5548.72
     22.3530	 6320.00	 6305.18	-2003.43	 5552.09
     22.3790	 6363.00	 6308.59	-1963.84	 5555.45
     22.4050	 6455.00	 6312.01	-1875.26	 5558.82
     22.4310	 6506.00	 6315.43	-1827.68	 5562.19
     22.4570	 6424.00	 6318.86	-1913.11	 5565.55
     22.4830	 6434.00	 6322.30	-1906.55	 5568.92
     22.5090	 6411.00	 6325.74	-1932.99	 5572.29
     22.5350	 6349.00	 6329.18	-1998.43	 5575.65
     22.5610	 6396.00	 6332.63	-1954.88	 5579.02
     22.5870	 6439.00	 6336.08	-1915.33	 5582.38
     22.6130	 6408.00	 6339.54	-1949.79	 5585.75
     22.6390	 6360.00	 6343.00	-2001.25	 5589.12
     22.6650	 6330.00	 6346.47	-2034.72	 5592.48
     22.6910	 6504.00	 6349.94	-1864.19	 5595.85
     22.7170	 6495.00	 6353.42	-1876.67	 5599.22
     22.7430	 6423.00	 6356.90	-1952.15	 5602.58
     22.7690	 6447.00	 6358.65	-1929.90	 5604.21
     22.7950	 6358.00	 6358.41	-2018.66	 5603.85
     22.8210	 6436.00	 6358.18	-1940.43	 5603.49
     22.8470	 6384.00	 6357.95	-1992.20	 5603.13
     22.8730	 6380.00	 6357.72	-1995.97	 5602.77
     22.8990	 6441.00	 6357.50	-1934.75	 5602.41
     22.9250	 6371.00	 6357.29	-2004.54	 5602.04
     22.9510	 6255.00	 6357.08	-2120.33	 5601.68
     22.9770	 6428.00	 6356.87	-1947.12	 5601.32
     23.0030	 6505.00	 6356.67	-1869.92	 5600.96
     23.0290	 6411.00	 6356.47	-1963.72	 5600.60
     23.0550	 6407.00	 6356.28	-1967.53	 5600.23
     23.0810	 6493.00	 6356.09	-1881.34	 5599.87
     23.1070	 6358.00	 6355.90	-2016.15	 5599.51
     23.1330	 6324.00	 6355.72	-2049.97	 5599.15
     23.1590	 6566.00	 6355.54	-1807.79	 5598.79
     23.1850	 6415.00	 6355.37	-1958.62	 5598.43
     23.2110	 6313.00	 6355.21	-2060.46	 5598.06
     23.2370	 6322.00	 6355.04	-2051.29	 5597.70
     23.2630	 6263.00	 6354.88	-2110.13	 5597.34
     23.2890	 6419.00	 6354.73	-1953.98	 5596.98
     23.3150	 6455.00	 6354.58	-1917.83	 5596.62
     23.3410	 6374.00	 6354.43	-1998.68	 5596.25
     23.3670	 6422.00	 6354.29	-1950.54	 5595.89
     23.3930	 6529.00	 6354.16	-1843.41	 5595.53
     23.4190	 6476.00	 6354.02	-1896.27	 5595.17
     23.4450	 6352.00	 6353.89	-2020.14	 5594.81
     23.4710	 6348.00	 6353.77	-2024.02	 5594.45
     23.4970	 6470.00	 6353.65	-1901.90	 5594.08
     23.5230	 6555.00	 6353.54	-1816.79	 5593.72
     23.5490	 6432.00	 6353.43	-1939.68	 5593.36
     23.5750	 6339.00	 6353.32	-2032.57	 5593.00
     23.6010	 6513.00	 6353.22	-1858.47	 5592.64
     23.6270	 6590.00	 6353.12	-1781.37	 5592.28
     23.6530	 6408.00	 6353.03	-1963.28	 5591.91
     23.6790	 6433.00	 6352.94	-1938.19	 5591.55
     23.7050	 6451.00	 6352.86	-1920.11	 5591.19
     23.7310	 6539.00	 6352.78	-1832.03	 5590.83
     23.7570	 6377.00	 6352.71	-1993.96	 5590.47
     23.7830	 6533.00	 6352.64	-1837.89	 5590.10
     23.8090	 6485.00	 6352.57	-1885.82	 5589.74
     23.8350	 6387.00	 6352.51	-1983.76	 5589.38
     23.8610	 6357.00	 6352.46	-2013.71	 5589.02
     23.8870	 6415.00	 6352.41	-1955.66	 5588.66
     23.9130	 6450.00	 6352.36	-1920.61	 5588.30
     23.9390	 6345.00	 6352.32	-2025.57	 5587.93
     23.9650	 6469.00	 6352.29	-1901.54	 5587.57
     23.9910	 6380.00	 6352.25	-1990.50	 5587.21
     24.0170	 6367.00	 6352.23	-2003.48	 5586.85
     24.0430	 6480.00	 6352.21	-1890.46	 5586.49
     24.0690	 6449.00	 6352.19	-1921.44	 5586.12
     24.0950	 6506.00	 6352.18	-1864.43	 5585.76
     24.1210	 6367.00	 6352.17	-2003.42	 5585.40
     24.1470	 6406.00	 6352.17	-1964.42	 5585.04
     24.1730	 6409.00	 6352.18	-1961.43	 5584.68
     24.1990	 6363.00	 6352.19	-2007.44	 5584.32
     24.2250	 6271.00	 6352.20	-2099.45	 5583.95
     24.2510	 6337.00	 6352.22	-2033.47	 5583.59
     24.2770	 6399.00	 6352.25	-1971.50	 5583.23
     24.3030	 6436.00	 6352.28	-1934.53	 5582.87
     24.3290	 6414.00	 6352.32	-1956.57	 5582.51
     24.3550	 6356.00	 6352.36	-2014.61	 5582.15
     24.3810	 6390.00	 6352.41	-1980.66	 5581.78
     24.4070	 6309.00	 6352.46	-2061.71	 5581.42
     24.4330	 6304.00	 6352.52	-2066.77	 5581.06
     24.4590	 6389.00	 6352.59	-1981.84	 5580.70
     24.4850	 6426.00	 6352.66	-1944.91	 5580.34
     24.5110	 6417.00	 6352.74	-1953.99	 5579.97
     24.5370	 6338.00	 6352.82	-2033.07	 5579.61
     24.5630	 6343.00	 6352.91	-2028.16	 5579.25
     24.5890	 6383.00	 6352.42	-1987.67	 5578.30
     24.6150	 6378.00	 6351.28	-1991.53	 5576.70
     24.6410	 6361.00	 6350.16	-2007.41	 5575.11
     24.6670	 6317.00	 6349.04	-2050.29	 5573.51
     24.6930	 6245.00	 6347.92	-2121.17	 5571.91
     24.7190	 6282.00	 6346.82	-2083.07	 5570.32
     24.7450	 6300.00	 6345.71	-2063.96	 5568.72
     24.7710	 6243.00	 6344.62	-2119.87	 5567.12
     24.7970	 6302.00	 6343.53	-2059.78	 5565.53
     24.8230	 6433.00	 6342.45	-1927.70	 5563.93
     24.8490	 6434.00	 6341.38	-1925.63	 5562.33
     24.8750	 6311.00	 6340.32	-2047.57	 5560.74
     24.9010	 6315.00	 6339.26	-2042.51	 5559.14
     24.9270	 6292.00	 6338.21	-2064.46	 5557.54
     24.9530	 6368.00	 6337.16	-1987.41	 5555.95
     24.9790	 6327.00	 6336.12	-2027.38	 5554.35
     25.0050	 6296.00	 6335.10	-2057.35	 5552.75
     25.0310	 6294.00	 6334.07	-2058.32	 5551.16
     25.0570	 6315.00	 6333.06	-2036.31	 5549.56
     25.0830	 6288.00	 6332.06	-2062.31	 5547.97
     25.1090	 6277.00	 6331.06	-2072.31	 5546.37
     25.1350	 6265.00	 6330.07	-2083.32	 5544.77
     25.1610	 6300.00	 6329.09	-2047.34	 5543.18
     25.1870	 6373.00	 6328.12	-1973.37	 5541.58
     25.2130	 6352.00	 6327.15	-1993.40	 5539.98
     25.2390	 6350.00	 6326.20	-1994.45	 5538.39
     25.2650	 6418.00	 6325.25	-1925.50	 5536.79
     25.2910	 6295.00	 6324.32	-2047.57	 5535.19
     25.3170	 6309.00	 6323.39	-2032.64	 5533.60
     25.3430	 6315.00	 6322.47	-2025.72	 5532.00
     25.3690	 6427.00	 6321.56	-1912.81	 5530.40
     25.3950	 6436.00	 6320.66	-1902.91	 5528.81
     25.4210	 6342.00	 6319.77	-1996.02	 5527.21
     25.4470	 6325.00	 6318.89	-2012.14	 5525.61
