 DD67    CELL:    8.42840   8.42840   8.42840   90.0000   90.0000   90.0000   SPGR: F d -3 m               TEMP:      0.00
  1   2874     1.54056     1.54439     0.00000     0.00000     0.00000    0
   94    0    0
 2Theta	Yobs	Ycal	Yobs-Ycal	Backg	Bragg	Posr	(hkl)	K
      5.1690	 5101.00	 5314.70	-1648.11	 4864.49	     18.2159	       0	(  1  1  1)	  0  1
      5.1950	 5130.00	 5289.25	-1593.66	 4839.03	     18.2615	       0	(  1  1  1)	  0  2
      5.2210	 5076.00	 5264.12	-1622.53	 4813.89	     29.9615	       0	(  2  2  0)	  0  1
      5.2470	 5107.00	 5239.31	-1566.72	 4789.05	     30.0377	       0	(  2  2  0)	  0  2
      5.2730	 5104.00	 5214.80	-1545.21	 4764.53	     35.2892	       0	(  3  1  1)	  0  1
      5.2990	 5082.00	 5190.59	-1543.00	 4740.31	     35.3798	       0	(  3  1  1)	  0  2
      5.3250	 5086.00	 5166.68	-1515.09	 4716.38	     36.9137	       0	(  2  2  2)	  0  1
      5.3510	 5042.00	 5143.06	-1535.47	 4692.75	     37.0087	       0	(  2  2  2)	  0  2
      5.3770	 4999.00	 5119.74	-1555.15	 4669.42	     42.8849	       0	(  4  0  0)	  0  1
      5.4030	 5016.00	 5096.70	-1515.11	 4646.36	     42.9968	       0	(  4  0  0)	  0  2
      5.4290	 4929.00	 5073.95	-1579.36	 4623.60	     46.9523	       0	(  3  3  1)	  0  1
      5.4550	 5026.00	 5051.48	-1459.89	 4601.11	     47.0760	       0	(  3  3  1)	  0  2
      5.4810	 4961.00	 5029.28	-1502.69	 4578.90	     53.1958	       0	(  4  2  2)	  0  1
      5.5070	 4991.00	 5007.36	-1450.77	 4556.96	     53.3384	       0	(  4  2  2)	  0  2
      5.5330	 5058.00	 4985.70	-1362.11	 4535.29	     56.7037	       0	(  3  3  3)	  0  1
      5.5590	 4994.00	 4964.31	-1404.73	 4513.89	     56.7037	       0	(  5  1  1)	  0  1
      5.5850	 4969.00	 4943.19	-1408.60	 4492.75	     56.8574	       0	(  3  3  3)	  0  2
      5.6110	 4815.00	 4922.32	-1541.73	 4471.87	     56.8574	       0	(  5  1  1)	  0  2
      5.6370	 4840.00	 4901.71	-1496.12	 4451.24	     62.2611	       0	(  4  4  0)	  0  1
      5.6630	 4818.00	 4881.35	-1497.77	 4430.87	     62.4331	       0	(  4  4  0)	  0  2
      5.6890	 4781.00	 4861.24	-1514.65	 4410.74	     65.4600	       0	(  5  3  1)	  0  1
      5.7150	 4794.00	 4841.38	-1481.79	 4390.86	     65.6431	       0	(  5  3  1)	  0  2
      5.7410	 4759.00	 4821.76	-1497.17	 4371.23	     66.5078	       0	(  4  4  2)	  0  1
      5.7670	 4820.00	 4802.37	-1416.78	 4351.83	     66.6946	       0	(  4  4  2)	  0  2
      5.7930	 4767.00	 4783.23	-1450.64	 4332.67	     70.6216	       0	(  6  2  0)	  0  1
      5.8190	 4663.00	 4764.31	-1535.72	 4313.74	     70.8235	       0	(  6  2  0)	  0  2
      5.8450	 4645.00	 4745.62	-1535.03	 4295.03	     73.6389	       0	(  5  3  3)	  0  1
      5.8710	 4754.00	 4727.17	-1407.58	 4276.56	     73.8522	       0	(  5  3  3)	  0  2
      5.8970	 4897.00	 4708.93	-1246.34	 4258.31	     74.6339	       0	(  6  2  2)	  0  1
      5.9230	 4765.00	 4690.92	-1360.33	 4240.28	     74.8511	       0	(  6  2  2)	  0  2
      5.9490	 4609.00	 4673.12	-1498.53	 4222.47	     78.5703	       0	(  4  4  4)	  0  1
      5.9750	 4642.00	 4655.54	-1447.95	 4204.87	     78.8034	       0	(  4  4  4)	  0  2
      6.0010	 4671.00	 4638.17	-1401.58	 4187.48	     81.4860	       0	(  5  5  1)	  0  1
      6.0270	 4677.00	 4621.00	-1378.41	 4170.31	     81.4860	       0	(  7  1  1)	  0  1
      6.0530	 4696.00	 4604.05	-1342.46	 4153.33	     81.7315	       0	(  5  5  1)	  0  2
      6.0790	 4632.00	 4587.30	-1389.71	 4136.57	     81.7315	       0	(  7  1  1)	  0  2
      6.1050	 4616.00	 4570.74	-1389.15	 4120.00	     86.3003	       0	(  6  4  2)	  0  1
      6.1310	 4566.00	 4554.39	-1422.80	 4103.63	     86.5675	       0	(  6  4  2)	  0  2
      6.1570	 4541.00	 4538.23	-1431.64	 4087.45	     89.1742	       0	(  5  5  3)	  0  1
      6.1830	 4542.00	 4522.26	-1414.67	 4071.47	     89.1742	       0	(  7  3  1)	  0  1
      6.2090	 4546.00	 4506.49	-1394.90	 4055.68	     89.4552	       0	(  5  5  3)	  0  2
      6.2350	 4535.00	 4490.90	-1390.31	 4040.07	     89.4552	       0	(  7  3  1)	  0  2
      6.2610	 4482.00	 4475.49	-1427.90	 4024.65	     93.9630	       0	(  8  0  0)	  0  1
      6.2870	 4456.00	 4460.27	-1438.68	 4009.41	     94.2686	       0	(  8  0  0)	  0  2
      6.3130	 4520.00	 4445.22	-1359.63	 3994.35	     96.8475	       0	(  7  3  3)	  0  1
      6.3390	 4529.00	 4430.36	-1335.77	 3979.46	     97.1690	       0	(  7  3  3)	  0  2
      6.3650	 4555.00	 4415.66	-1295.07	 3964.76	     97.8125	       0	(  6  4  4)	  0  1
      6.3910	 4579.00	 4401.14	-1256.55	 3950.22	     98.1395	       0	(  6  4  4)	  0  2
      6.4170	 4486.00	 4386.79	-1335.20	 3935.85	    101.6979	       0	(  6  6  0)	  0  1
      6.4430	 4441.00	 4372.61	-1366.02	 3921.65	    101.6979	       0	(  8  2  2)	  0  1
      6.4690	 4464.00	 4358.59	-1329.00	 3907.62	    102.0483	       0	(  6  6  0)	  0  2
      6.4950	 4503.00	 4344.74	-1276.15	 3893.75	    102.0483	       0	(  8  2  2)	  0  2
      6.5210	 4433.00	 4331.04	-1332.45	 3880.03	    104.6472	       0	(  5  5  5)	  0  1
      6.5470	 4322.00	 4317.50	-1429.91	 3866.48	    104.6472	       0	(  7  5  1)	  0  1
      6.5730	 4241.00	 4304.12	-1497.53	 3853.08	    105.0167	       0	(  5  5  5)	  0  2
      6.5990	 4293.00	 4290.90	-1432.31	 3839.84	    105.0167	       0	(  7  5  1)	  0  2
      6.6250	 4436.00	 4277.82	-1276.23	 3826.75	    105.6387	       0	(  6  6  2)	  0  1
      6.6510	 4439.00	 4264.89	-1260.30	 3813.80	    106.0149	       0	(  6  6  2)	  0  2
      6.6770	 4377.00	 4252.12	-1309.53	 3801.01	    109.6571	       0	(  8  4  0)	  0  1
      6.7030	 4313.00	 4239.48	-1360.89	 3788.36	    110.0622	       0	(  8  4  0)	  0  2
      6.7290	 4371.00	 4226.99	-1290.40	 3775.85	    112.7372	       0	(  7  5  3)	  0  1
      6.7550	 4362.00	 4214.64	-1287.05	 3763.48	    112.7372	       0	(  9  1  1)	  0  1
      6.7810	 4311.00	 4202.43	-1325.84	 3751.25	    113.1665	       0	(  7  5  3)	  0  2
      6.8070	 4202.00	 4190.36	-1422.77	 3739.17	    113.1665	       0	(  9  1  1)	  0  2
      6.8330	 4254.00	 4178.42	-1358.84	 3727.21	    113.7790	       0	(  8  4  2)	  0  1
      6.8590	 4261.00	 4166.62	-1340.03	 3715.39	    114.2169	       0	(  8  4  2)	  0  2
      6.8850	 4275.00	 4154.95	-1314.36	 3703.70	    118.0362	       0	(  6  6  4)	  0  1
      6.9110	 4198.00	 4143.40	-1379.81	 3692.14	    118.5121	       0	(  6  6  4)	  0  2
      6.9370	 4094.00	 4131.99	-1472.40	 3680.70	    121.3419	       0	(  9  3  1)	  0  1
      6.9630	 4026.00	 4120.70	-1529.11	 3669.39	    121.8507	       0	(  9  3  1)	  0  2
      6.9890	 4115.00	 4109.53	-1428.94	 3658.21	    127.1331	       0	(  8  4  4)	  0  1
      7.0150	 4173.00	 4098.49	-1359.90	 3647.15	    127.7088	       0	(  8  4  4)	  0  2
      7.0410	 4201.00	 4087.57	-1320.98	 3636.21	    130.8274	       0	(  7  5  5)	  0  1
      7.0670	 4112.00	 4076.76	-1399.17	 3625.38	    130.8275	       0	(  7  7  1)	  0  1
      7.0930	 4024.00	 4066.07	-1476.48	 3614.68	    130.8274	       0	(  9  3  3)	  0  1
      7.1190	 4152.00	 4055.50	-1337.91	 3604.09	    131.4535	       0	(  7  5  5)	  0  2
      7.1450	 4196.00	 4045.04	-1283.45	 3593.61	    131.4535	       0	(  7  7  1)	  0  2
      7.1710	 4148.00	 4034.69	-1321.10	 3583.24	    131.4535	       0	(  9  3  3)	  0  2
      7.1970	 4119.00	 4024.46	-1339.87	 3572.99	    137.5026	       0	(  8  6  2)	  0  1
      7.2230	 4095.00	 4014.33	-1353.74	 3562.84	    137.5026	       0	( 10  2  0)	  0  1
      7.2490	 4038.00	 4004.31	-1400.72	 3552.80	    138.2410	       0	(  8  6  2)	  0  2
      7.2750	 4036.00	 3994.39	-1392.80	 3542.87	    138.2410	       0	( 10  2  0)	  0  2
      7.3010	 4046.00	 3984.58	-1372.99	 3533.04	    141.9453	       0	(  9  5  1)	  0  1
      7.3270	 4046.00	 3974.87	-1363.28	 3523.31	    141.9453	       0	(  7  7  3)	  0  1
      7.3530	 4028.00	 3965.26	-1371.68	 3513.68	    142.7797	       0	(  9  5  1)	  0  2
      7.3790	 4048.00	 3955.76	-1342.17	 3504.16	    142.7798	       0	(  7  7  3)	  0  2
      7.4050	 3979.00	 3946.35	-1401.76	 3494.73	    143.5260	       0	(  6  6  6)	  0  1
      7.4310	 3972.00	 3937.03	-1399.44	 3485.39	    143.5260	       0	( 10  2  2)	  0  1
      7.4570	 3876.00	 3927.81	-1486.22	 3476.15	    144.4003	       0	(  6  6  6)	  0  2
      7.4830	 3927.00	 3918.69	-1426.10	 3467.01	    144.4003	       0	( 10  2  2)	  0  2
      7.5090	 3954.00	 3909.66	-1390.07	 3457.96	    157.0817	       0	(  9  5  3)	  0  1
      7.5350	 3918.00	 3900.71	-1417.12	 3449.00	    158.5317	       0	(  9  5  3)	  0  2
      7.5610	 3856.00	 3891.86	-1470.27	 3440.13	    159.6797	       0	(  8  6  4)	  0  1
      7.5870	 3952.00	 3883.10	-1365.51	 3431.34	    161.3354	       0	(  8  6  4)	  0  2
      7.6130	 3901.00	 3874.42	-1407.83	 3422.65
      7.6390	 3898.00	 3865.83	-1402.24	 3414.04
      7.6650	 4024.00	 3857.32	-1267.74	 3405.51
      7.6910	 3978.00	 3848.90	-1305.31	 3397.07
      7.7170	 3904.00	 3840.56	-1370.97	 3388.70
      7.7430	 3947.00	 3832.30	-1319.71	 3380.42
      7.7690	 3905.00	 3824.12	-1353.53	 3372.22
      7.7950	 3823.00	 3816.02	-1427.43	 3364.10
      7.8210	 3888.00	 3807.99	-1354.40	 3356.05
      7.8470	 3788.00	 3800.05	-1446.46	 3348.09
      7.8730	 3874.00	 3792.17	-1352.58	 3340.19
      7.8990	 3837.00	 3784.37	-1381.78	 3332.37
      7.9250	 3949.00	 3776.64	-1262.06	 3324.62
      7.9510	 3735.00	 3768.99	-1468.40	 3316.95
      7.9770	 3807.00	 3761.40	-1388.82	 3309.34
      8.0030	 3799.00	 3753.89	-1389.30	 3301.80
      8.0290	 3751.00	 3746.44	-1429.85	 3294.34
      8.0550	 3635.00	 3739.07	-1538.48	 3286.94
      8.0810	 3704.00	 3731.75	-1462.16	 3279.60
      8.1070	 3683.00	 3724.51	-1475.92	 3272.33
      8.1330	 3624.00	 3717.32	-1527.73	 3265.13
      8.1590	 3658.00	 3710.21	-1486.62	 3257.99
      8.1850	 3634.00	 3703.15	-1503.56	 3250.91
      8.2110	 3732.00	 3696.16	-1398.57	 3243.90
      8.2370	 3660.00	 3689.22	-1463.63	 3236.94
      8.2630	 3705.00	 3682.35	-1411.76	 3230.05
      8.2890	 3691.00	 3675.54	-1418.95	 3223.21
      8.3150	 3636.00	 3668.78	-1467.19	 3216.43
      8.3410	 3585.00	 3662.08	-1511.49	 3209.71
      8.3670	 3614.00	 3655.44	-1475.85	 3203.05
      8.3930	 3660.00	 3648.86	-1423.27	 3196.44
      8.4190	 3674.00	 3642.33	-1402.74	 3189.89
      8.4450	 3631.00	 3635.85	-1439.26	 3183.39
      8.4710	 3529.00	 3629.43	-1534.84	 3176.94
      8.4970	 3601.00	 3623.06	-1456.47	 3170.55
      8.5230	 3638.00	 3616.74	-1413.15	 3164.21
      8.5490	 3657.00	 3610.47	-1387.88	 3157.92
      8.5750	 3660.00	 3604.25	-1378.66	 3151.68
      8.6010	 3620.00	 3598.09	-1412.50	 3145.48
      8.6270	 3664.00	 3591.97	-1362.38	 3139.34
      8.6530	 3608.00	 3585.90	-1412.31	 3133.25
      8.6790	 3541.00	 3579.88	-1473.29	 3127.20
      8.7050	 3531.00	 3573.90	-1477.31	 3121.20
      8.7310	 3498.00	 3567.97	-1504.38	 3115.25
      8.7570	 3577.00	 3562.09	-1419.50	 3109.34
      8.7830	 3610.00	 3556.25	-1380.66	 3103.48
      8.8090	 3557.00	 3550.45	-1427.86	 3097.66
      8.8350	 3457.00	 3544.70	-1522.11	 3091.88
      8.8610	 3526.00	 3539.00	-1447.41	 3086.15
      8.8870	 3580.00	 3533.33	-1387.74	 3080.46
      8.9130	 3526.00	 3527.71	-1436.12	 3074.81
      8.9390	 3497.00	 3522.13	-1459.54	 3069.21
      8.9650	 3506.00	 3516.59	-1445.00	 3063.64
      8.9910	 3507.00	 3511.09	-1438.50	 3058.12
      9.0170	 3478.00	 3505.62	-1462.03	 3052.63
      9.0430	 3482.00	 3500.20	-1452.61	 3047.18
      9.0690	 3464.00	 3494.82	-1465.23	 3041.77
      9.0950	 3453.00	 3489.48	-1470.89	 3036.40
      9.1210	 3458.00	 3484.17	-1460.58	 3031.07
      9.1470	 3472.00	 3478.90	-1441.31	 3025.78
      9.1730	 3421.00	 3473.67	-1487.08	 3020.52
      9.1990	 3376.00	 3468.47	-1526.88	 3015.29
      9.2250	 3405.00	 3463.31	-1492.72	 3010.11
      9.2510	 3484.00	 3458.18	-1408.60	 3004.95
      9.2770	 3463.00	 3453.09	-1424.50	 2999.84
      9.3030	 3377.00	 3448.04	-1505.45	 2994.75
      9.3290	 3393.00	 3443.02	-1484.43	 2989.70
      9.3550	 3332.00	 3438.03	-1540.44	 2984.69
      9.3810	 3366.00	 3433.07	-1501.48	 2979.71
      9.4070	 3344.00	 3428.15	-1518.56	 2974.76
      9.4330	 3492.00	 3423.26	-1365.67	 2969.84
      9.4590	 3605.00	 3418.40	-1247.81	 2964.95
      9.4850	 3555.00	 3413.58	-1292.99	 2960.10
      9.5110	 3439.00	 3408.78	-1404.19	 2955.28
      9.5370	 3313.00	 3404.02	-1525.43	 2950.48
      9.5630	 3292.00	 3399.28	-1541.70	 2945.72
      9.5890	 3281.00	 3394.58	-1547.99	 2940.99
      9.6150	 3294.00	 3389.91	-1530.32	 2936.29
      9.6410	 3294.00	 3385.26	-1525.68	 2931.62
      9.6670	 3249.00	 3380.65	-1566.06	 2926.97
      9.6930	 3201.00	 3376.06	-1609.48	 2922.36
      9.7190	 3252.00	 3371.51	-1553.92	 2917.77
      9.7450	 3255.00	 3366.98	-1546.39	 2913.21
      9.7710	 3424.00	 3362.48	-1372.89	 2908.68
      9.7970	 3216.00	 3358.01	-1576.42	 2904.18
      9.8230	 3260.00	 3353.56	-1527.97	 2899.71
      9.8490	 3264.00	 3349.15	-1519.56	 2895.26
      9.8750	 3284.00	 3344.75	-1495.16	 2890.84
      9.9010	 3334.00	 3340.39	-1440.80	 2886.44
      9.9270	 3200.00	 3336.05	-1570.46	 2882.08
      9.9530	 3222.00	 3331.74	-1544.15	 2877.73
      9.9790	 3193.00	 3327.46	-1568.87	 2873.42
     10.0050	 3331.00	 3323.20	-1426.61	 2869.13
     10.0310	 3084.00	 3318.96	-1669.37	 2864.86
     10.0570	 3230.00	 3314.75	-1519.16	 2860.62
     10.0830	 3176.00	 3310.57	-1568.98	 2856.40
     10.1090	 3241.00	 3306.41	-1499.82	 2852.21
     10.1350	 3230.00	 3302.28	-1506.69	 2848.05
     10.1610	 3210.00	 3298.17	-1522.58	 2843.90
     10.1870	 3163.00	 3294.08	-1565.49	 2839.79
     10.2130	 3196.00	 3290.02	-1528.43	 2835.69
     10.2390	 3167.00	 3285.98	-1553.39	 2831.62
     10.2650	 3237.00	 3281.97	-1479.38	 2827.58
     10.2910	 3125.00	 3277.98	-1587.39	 2823.55
     10.3170	 3188.00	 3274.01	-1520.42	 2819.55
     10.3430	 3139.00	 3270.07	-1565.48	 2815.57
     10.3690	 3116.00	 3266.15	-1584.56	 2811.62
     10.3950	 3037.00	 3262.25	-1659.66	 2807.69
     10.4210	 3085.00	 3258.38	-1607.79	 2803.78
     10.4470	 3252.00	 3254.52	-1436.94	 2799.89
     10.4730	 3074.00	 3250.70	-1611.11	 2796.03
     10.4990	 3161.00	 3246.89	-1520.30	 2792.18
     10.5250	 3148.00	 3243.10	-1529.51	 2788.36
     10.5510	 3080.00	 3239.34	-1593.75	 2784.57
     10.5770	 3137.00	 3235.60	-1533.01	 2780.79
     10.6030	 3192.00	 3231.88	-1474.29	 2777.03
     10.6290	 3097.00	 3228.18	-1565.59	 2773.30
     10.6550	 3155.00	 3224.51	-1503.92	 2769.59
     10.6810	 3061.00	 3220.85	-1594.26	 2765.90
     10.7070	 3039.00	 3217.22	-1612.63	 2762.23
     10.7330	 3196.00	 3213.61	-1452.02	 2758.58
     10.7590	 3191.00	 3210.02	-1453.43	 2754.95
     10.7850	 3189.00	 3206.45	-1451.86	 2751.35
     10.8110	 3215.00	 3202.90	-1422.31	 2747.76
     10.8370	 3199.00	 3199.38	-1434.79	 2744.19
     10.8630	 3091.00	 3195.87	-1539.28	 2740.65
     10.8890	 3093.00	 3192.39	-1533.80	 2737.13
     10.9150	 3106.00	 3188.92	-1517.33	 2733.62
     10.9410	 3097.00	 3185.48	-1522.89	 2730.14
     10.9670	 3052.00	 3182.06	-1564.47	 2726.68
     10.9930	 3099.00	 3178.65	-1514.06	 2723.24
     11.0190	 3131.00	 3175.27	-1478.68	 2719.82
     11.0450	 3160.00	 3171.91	-1446.32	 2716.41
     11.0710	 3150.00	 3168.57	-1452.98	 2713.03
     11.0970	 3212.00	 3165.25	-1387.66	 2709.67
     11.1230	 3186.00	 3161.95	-1410.36	 2706.33
     11.1490	 3173.00	 3158.67	-1420.08	 2703.01
     11.1750	 3136.00	 3155.41	-1453.82	 2699.71
     11.2010	 3048.00	 3152.17	-1538.58	 2696.43
     11.2270	 3063.00	 3148.95	-1520.36	 2693.17
     11.2530	 3070.00	 3145.75	-1510.16	 2689.92
     11.2790	 3056.00	 3142.58	-1520.99	 2686.70
     11.3050	 3111.00	 3139.42	-1462.83	 2683.50
     11.3310	 3124.00	 3136.28	-1446.69	 2680.32
     11.3570	 3084.00	 3133.16	-1483.57	 2677.16
     11.3830	 3106.00	 3130.06	-1458.47	 2674.01
     11.4090	 3154.00	 3126.98	-1407.39	 2670.89
     11.4350	 3099.00	 3123.93	-1459.34	 2667.79
     11.4610	 3058.00	 3120.89	-1497.30	 2664.70
     11.4870	 3112.00	 3117.87	-1440.28	 2661.64
     11.5130	 3151.00	 3114.87	-1398.28	 2658.60
     11.5390	 3143.00	 3111.89	-1403.30	 2655.57
     11.5650	 3149.00	 3108.93	-1394.34	 2652.57
     11.5910	 3142.00	 3105.99	-1398.41	 2649.58
     11.6170	 3085.00	 3103.08	-1452.49	 2646.62
     11.6430	 3074.00	 3100.18	-1460.59	 2643.67
     11.6690	 3090.00	 3097.30	-1441.71	 2640.74
     11.6950	 3100.00	 3094.44	-1428.85	 2637.83
     11.7210	 3152.00	 3091.60	-1374.01	 2634.95
     11.7470	 3174.00	 3088.78	-1349.19	 2632.08
     11.7730	 3147.00	 3085.99	-1373.40	 2629.23
     11.7990	 3154.00	 3083.21	-1363.62	 2626.40
     11.8250	 3147.00	 3080.45	-1367.86	 2623.59
     11.8510	 3110.00	 3077.71	-1402.12	 2620.80
     11.8770	 3110.00	 3074.99	-1399.40	 2618.03
     11.9030	 3108.00	 3072.29	-1398.70	 2615.28
     11.9290	 3102.00	 3069.61	-1402.02	 2612.55
     11.9550	 3031.00	 3066.96	-1470.37	 2609.84
     11.9810	 3071.00	 3064.32	-1427.73	 2607.15
     12.0070	 3092.00	 3061.70	-1404.11	 2604.48
     12.0330	 3049.00	 3059.10	-1444.51	 2601.83
     12.0590	 3089.00	 3056.52	-1401.94	 2599.20
     12.0850	 3078.00	 3053.97	-1410.38	 2596.58
     12.1110	 3135.00	 3051.43	-1350.84	 2593.99
     12.1370	 3130.00	 3048.91	-1353.32	 2591.42
     12.1630	 3067.00	 3046.42	-1413.83	 2588.87
     12.1890	 3094.00	 3043.94	-1384.35	 2586.33
     12.2150	 3077.00	 3041.49	-1398.90	 2583.82
     12.2410	 3120.00	 3039.05	-1353.46	 2581.33
     12.2670	 3100.00	 3036.64	-1371.05	 2578.85
     12.2930	 3083.00	 3034.24	-1385.65	 2576.40
     12.3190	 3078.00	 3031.87	-1388.28	 2573.97
     12.3450	 3072.00	 3029.51	-1391.92	 2571.55
     12.3710	 3080.00	 3027.18	-1381.59	 2569.16
     12.3970	 3129.00	 3024.87	-1330.28	 2566.79
     12.4230	 3039.00	 3022.58	-1417.99	 2564.44
     12.4490	 3064.00	 3020.31	-1390.72	 2562.10
     12.4750	 3060.00	 3018.06	-1392.47	 2559.79
     12.5010	 3155.00	 3015.83	-1295.24	 2557.50
     12.5270	 2937.00	 3013.62	-1511.03	 2555.23
     12.5530	 3033.00	 3011.43	-1412.84	 2552.97
     12.5790	 3010.00	 3009.27	-1433.68	 2550.74
     12.6050	 3048.00	 3007.12	-1393.53	 2548.53
     12.6310	 3027.00	 3005.00	-1412.41	 2546.34
     12.6570	 3114.00	 3002.89	-1323.30	 2544.17
     12.6830	 2904.00	 3000.81	-1531.22	 2542.02
     12.7090	 3028.00	 2998.75	-1405.16	 2539.89
     12.7350	 3048.00	 2996.71	-1383.12	 2537.78
     12.7610	 3084.00	 2994.69	-1345.10	 2535.69
     12.7870	 2990.00	 2992.69	-1437.10	 2533.62
     12.8130	 3118.00	 2990.72	-1307.13	 2531.57
     12.8390	 2962.00	 2988.76	-1461.17	 2529.55
     12.8650	 3073.00	 2986.83	-1348.24	 2527.54
     12.8910	 3045.00	 2984.92	-1374.33	 2525.56
     12.9170	 3016.00	 2983.02	-1401.44	 2523.59
     12.9430	 3029.00	 2981.16	-1386.57	 2521.65
     12.9690	 3112.00	 2979.31	-1301.72	 2519.72
     12.9950	 3025.00	 2977.48	-1386.89	 2517.82
     13.0210	 3037.00	 2975.68	-1373.09	 2515.94
     13.0470	 3123.00	 2973.90	-1285.31	 2514.08
     13.0730	 3020.00	 2972.13	-1386.55	 2512.24
     13.0990	 2991.00	 2970.40	-1413.81	 2510.42
     13.1250	 3038.00	 2968.68	-1365.09	 2508.62
     13.1510	 3065.00	 2966.98	-1336.39	 2506.84
     13.1770	 3037.00	 2965.31	-1362.72	 2505.09
     13.2030	 3027.00	 2963.66	-1371.07	 2503.35
     13.2290	 3012.00	 2962.03	-1384.44	 2501.64
     13.2550	 2938.00	 2960.42	-1456.83	 2499.95
     13.2810	 3053.00	 2958.84	-1340.25	 2498.28
     13.3070	 3093.00	 2957.28	-1298.69	 2496.63
     13.3330	 3098.00	 2955.74	-1292.15	 2495.00
     13.3590	 3082.00	 2954.22	-1306.63	 2493.39
     13.3850	 3072.00	 2952.72	-1315.13	 2491.81
     13.4110	 2999.00	 2951.25	-1386.66	 2490.24
     13.4370	 3107.00	 2949.80	-1277.21	 2488.70
     13.4630	 3189.00	 2948.37	-1193.78	 2487.18
     13.4890	 3075.00	 2946.97	-1306.38	 2485.67
     13.5150	 3083.00	 2945.58	-1296.99	 2484.20
     13.5410	 3085.00	 2944.22	-1293.63	 2482.74
     13.5670	 3031.00	 2942.89	-1346.30	 2481.30
