 AH11    CELL:    8.39425   8.39425   8.39425   90.0000   90.0000   90.0000   SPGR: F d -3 m               TEMP:      0.00
  1   2495     1.54056     1.54443     0.00000     0.00000     0.00000    0
    32     0     0
 2Theta	Yobs	Ycal	Yobs-Ycal	Backg	Posr	(hkl)	K
     15.0230	 2614.00	 2657.31	-1318.31	 2270.86
     15.0490	 2693.00	 2656.10	-1238.10	 2269.00
     15.0750	 2689.00	 2654.90	-1240.90	 2267.14
     15.1010	 2630.00	 2653.72	-1298.72	 2265.27
     15.1270	 2704.00	 2652.55	-1223.55	 2263.41
     15.1530	 2679.00	 2651.39	-1247.39	 2261.55
     15.1790	 2604.00	 2650.25	-1321.25	 2259.69
     15.2050	 2722.00	 2649.12	-1202.12	 2257.83
     15.2310	 2679.00	 2648.01	-1244.01	 2255.97
     15.2570	 2696.00	 2646.91	-1225.91	 2254.11
     15.2830	 2660.00	 2645.83	-1260.83	 2252.25
     15.3090	 2715.00	 2644.76	-1204.76	 2250.39
     15.3350	 2649.00	 2643.71	-1269.71	 2248.52
     15.3610	 2737.00	 2642.67	-1180.67	 2246.66
     15.3870	 2628.00	 2641.65	-1288.65	 2244.80
     15.4130	 2614.00	 2640.65	-1301.65	 2242.94
     15.4390	 2686.00	 2639.67	-1228.67	 2241.08
     15.4650	 2622.00	 2638.70	-1291.70	 2239.22
     15.4910	 2557.00	 2637.76	-1355.76	 2237.36
     15.5170	 2668.00	 2636.83	-1243.83	 2235.50
     15.5430	 2630.00	 2635.92	-1280.92	 2233.64
     15.5690	 2600.00	 2635.03	-1310.03	 2231.77
     15.5950	 2649.00	 2634.17	-1260.17	 2229.91
     15.6210	 2625.00	 2633.32	-1283.32	 2228.05
     15.6470	 2647.00	 2632.50	-1260.50	 2226.19
     15.6730	 2662.00	 2631.69	-1244.69	 2224.33
     15.6990	 2657.00	 2630.92	-1248.92	 2222.47
     15.7250	 2639.00	 2630.16	-1266.16	 2220.61
     15.7510	 2698.00	 2629.43	-1206.43	 2218.75
     15.7770	 2695.00	 2628.72	-1208.72	 2216.89
     15.8030	 2626.00	 2628.04	-1277.04	 2215.02
     15.8290	 2589.00	 2627.39	-1313.39	 2213.16
     15.8550	 2653.00	 2626.76	-1248.76	 2211.30
     15.8810	 2611.00	 2626.15	-1290.15	 2209.44
     15.9070	 2578.00	 2627.91	-1324.91	 2209.88
     15.9330	 2556.00	 2634.41	-1353.41	 2215.04
     15.9590	 2709.00	 2640.91	-1206.91	 2220.20
     15.9850	 2744.00	 2647.45	-1178.45	 2225.36
     16.0110	 2716.00	 2654.02	-1213.02	 2230.52
     16.0370	 2665.00	 2660.62	-1270.62	 2235.68
     16.0630	 2727.00	 2667.25	-1215.25	 2240.84
     16.0890	 2687.00	 2673.92	-1261.92	 2246.00
     16.1150	 2738.00	 2680.62	-1217.62	 2251.16
     16.1410	 2709.00	 2687.35	-1253.35	 2256.32
     16.1670	 2738.00	 2694.12	-1231.12	 2261.48
     16.1930	 2678.00	 2700.93	-1297.93	 2266.64
     16.2190	 2711.00	 2707.77	-1271.77	 2271.80
     16.2450	 2634.00	 2714.66	-1355.66	 2276.97
     16.2710	 2690.00	 2721.58	-1306.58	 2282.13
     16.2970	 2766.00	 2728.55	-1237.55	 2287.29
     16.3230	 2770.00	 2735.55	-1240.55	 2292.45
     16.3490	 2768.00	 2742.60	-1249.60	 2297.61
     16.3750	 2773.00	 2749.69	-1251.69	 2302.77
     16.4010	 2674.00	 2756.83	-1357.83	 2307.93
     16.4270	 2712.00	 2764.01	-1327.01	 2313.09
     16.4530	 2771.00	 2771.24	-1275.24	 2318.25
     16.4790	 2677.00	 2778.51	-1376.51	 2323.41
     16.5050	 2639.00	 2785.84	-1421.84	 2328.57
     16.5310	 2746.00	 2793.21	-1322.21	 2333.73
     16.5570	 2762.00	 2800.63	-1313.63	 2338.90
     16.5830	 2678.00	 2808.11	-1405.11	 2344.06
     16.6090	 2700.00	 2815.63	-1390.63	 2349.22
     16.6350	 2780.00	 2823.21	-1318.21	 2354.38
     16.6610	 2786.00	 2830.85	-1319.85	 2359.54
     16.6870	 2798.00	 2838.54	-1315.54	 2364.70
     16.7130	 2816.00	 2846.29	-1305.29	 2369.86
     16.7390	 2840.00	 2854.09	-1289.09	 2375.02
     16.7650	 2801.00	 2861.95	-1335.95	 2380.18
     16.7910	 2776.00	 2869.87	-1368.87	 2385.34
     16.8170	 2845.00	 2877.85	-1307.85	 2390.50
     16.8430	 2875.00	 2885.88	-1285.88	 2395.66
     16.8690	 2853.00	 2893.98	-1315.98	 2400.83
     16.8950	 2839.00	 2902.14	-1338.14	 2405.99
     16.9210	 2833.00	 2910.36	-1352.36	 2411.15
     16.9470	 2833.00	 2918.64	-1360.64	 2416.31
     16.9730	 2915.00	 2926.98	-1286.98	 2421.47
     16.9990	 2961.00	 2935.39	-1249.39	 2426.63
     17.0250	 2921.00	 2943.85	-1297.85	 2431.79
     17.0510	 2877.00	 2952.38	-1350.38	 2436.95
     17.0770	 2849.00	 2960.97	-1386.97	 2442.11
     17.1030	 2852.00	 2969.62	-1392.62	 2447.27
     17.1290	 2819.00	 2978.32	-1434.32	 2452.43
     17.1550	 2894.00	 2987.09	-1368.09	 2457.59
     17.1810	 2906.00	 2995.91	-1364.91	 2462.76
     17.2070	 2922.00	 3004.78	-1357.78	 2467.92
     17.2330	 2913.00	 3013.71	-1375.71	 2473.08
     17.2590	 2894.00	 3022.69	-1403.69	 2478.24
     17.2850	 2906.00	 3031.72	-1400.72	 2483.40
     17.3110	 2967.00	 3040.80	-1348.80	 2488.56
     17.3370	 2951.00	 3049.92	-1373.92	 2493.72
     17.3630	 2949.00	 3059.08	-1385.08	 2498.88
     17.3890	 3055.00	 3068.27	-1288.27	 2504.04
     17.4150	 2976.00	 3077.49	-1376.49	 2509.20
     17.4410	 3094.00	 3086.74	-1267.74	 2514.36
     17.4670	 3035.00	 3096.01	-1336.01	 2519.52
     17.4930	 3050.00	 3105.30	-1330.30	 2524.69
     17.5190	 3112.00	 3114.60	-1277.60	 2529.85
     17.5450	 3044.00	 3123.90	-1354.90	 2535.01
     17.5710	 3030.00	 3133.19	-1378.19	 2540.17
     17.5970	 3018.00	 3142.48	-1399.48	 2545.33
     17.6230	 3089.00	 3151.74	-1337.74	 2550.49
     17.6490	 3027.00	 3160.98	-1408.98	 2555.65
     17.6750	 3088.00	 3170.18	-1357.18	 2560.81
     17.7010	 3037.00	 3179.33	-1417.33	 2565.97
     17.7270	 3091.00	 3188.43	-1372.43	 2571.13
     17.7530	 3060.00	 3197.47	-1412.47	 2576.29
     17.7790	 3149.00	 3206.42	-1332.42	 2581.45
     17.8050	 3177.00	 3215.30	-1313.30	 2586.61
     17.8310	 3217.00	 3224.07	-1282.07	 2591.78
     17.8570	 3242.00	 3232.74	-1265.74	 2596.94
     17.8830	 3263.00	 3241.29	-1253.29	 2602.10
     17.9090	 3249.00	 3249.71	-1275.71	 2607.26
     17.9350	 3270.00	 3257.98	-1262.98	 2612.42
     17.9610	 3292.00	 3266.11	-1249.11	 2617.58
     17.9870	 3336.00	 3274.07	-1213.07	 2622.74
     18.0130	 3260.00	 3281.86	-1296.86	 2627.90
     18.0390	 3282.00	 3289.47	-1282.47	 2633.06
     18.0650	 3266.00	 3296.88	-1305.88	 2638.22
     18.0910	 3407.00	 3304.09	-1172.09	 2643.38
     18.1170	 3348.00	 3311.10	-1238.10	 2648.54
     18.1430	 3347.00	 3317.88	-1245.88	 2653.71
     18.1690	 3436.00	 3324.44	-1163.44	 2658.87
     18.1950	 3392.00	 3330.77	-1213.77	 2664.03
     18.2210	 3369.00	 3336.86	-1242.86	 2669.19
     18.2470	 3448.00	 3342.71	-1169.71	 2674.35
     18.2730	 3558.00	 3348.32	-1065.32	 2679.51
     18.2990	 3464.00	 3353.69	-1164.69	 2684.67
     18.3250	 3515.00	 3358.81	-1118.81	 2689.83
     18.3510	 3440.00	 3363.68	-1198.68	 2694.99
     18.3770	 3466.00	 3368.31	-1177.31	 2700.15
     18.4030	 3463.00	 3372.70	-1184.70	 2705.31
     18.4290	 3449.00	 3376.85	-1202.85	 2710.47
     18.4550	 3417.00	 3380.77	-1238.77	 2715.64
     18.4810	 3344.00	 3384.46	-1315.46	 2720.80
     18.5070	 3444.00	 3387.93	-1218.93	 2725.96
     18.5330	 3324.00	 3391.18	-1342.18	 2731.12
     18.5590	 3446.00	 3394.23	-1223.23	 2736.28
     18.5850	 3359.00	 3397.08	-1313.08	 2741.44
     18.6110	 3412.00	 3399.74	-1262.74	 2746.60
     18.6370	 3484.00	 3402.23	-1193.23	 2751.76
     18.6630	 3377.00	 3404.54	-1302.54	 2756.92
     18.6890	 3435.00	 3406.70	-1246.70	 2762.08
     18.7150	 3436.00	 3408.71	-1247.71	 2767.24
     18.7410	 3427.00	 3410.59	-1258.59	 2772.40
     18.7670	 3334.00	 3412.34	-1353.34	 2777.57
     18.7930	 3362.00	 3413.98	-1326.98	 2782.73
     18.8190	 3373.00	 3415.51	-1317.51	 2787.89
     18.8450	 3328.00	 3415.63	-1362.63	 2791.72
     18.8710	 3308.00	 3415.51	-1382.51	 2795.41
     18.8970	 3306.00	 3415.33	-1384.33	 2799.09
     18.9230	 3380.00	 3415.08	-1310.08	 2802.78
     18.9490	 3390.00	 3414.79	-1299.79	 2806.46
     18.9750	 3311.00	 3414.45	-1378.45	 2810.15
     19.0010	 3313.00	 3414.08	-1376.08	 2813.83
     19.0270	 3317.00	 3413.69	-1371.69	 2817.52
     19.0530	 3339.00	 3413.28	-1349.28	 2821.20
     19.0790	 3314.00	 3412.87	-1373.87	 2824.89
     19.1050	 3319.00	 3412.45	-1368.45	 2828.57
     19.1310	 3333.00	 3412.04	-1354.04	 2832.26
     19.1570	 3305.00	 3411.64	-1381.64	 2835.94
     19.1830	 3377.00	 3411.26	-1309.26	 2839.63
     19.2090	 3421.00	 3410.91	-1264.91	 2843.32
     19.2350	 3353.00	 3410.58	-1332.58	 2847.00
     19.2610	 3292.00	 3410.29	-1393.29	 2850.69
     19.2870	 3333.00	 3410.03	-1352.03	 2854.37
     19.3130	 3320.00	 3409.82	-1364.82	 2858.06
     19.3390	 3288.00	 3409.64	-1396.64	 2861.74
     19.3650	 3294.00	 3409.52	-1390.52	 2865.43
     19.3910	 3309.00	 3409.45	-1375.45	 2869.11
     19.4170	 3344.00	 3409.43	-1340.43	 2872.80
     19.4430	 3294.00	 3409.46	-1390.46	 2876.48
     19.4690	 3276.00	 3409.55	-1408.55	 2880.17
     19.4950	 3384.00	 3409.69	-1300.69	 2883.85
     19.5210	 3393.00	 3409.90	-1291.90	 2887.54
     19.5470	 3301.00	 3410.16	-1384.16	 2891.23
     19.5730	 3228.00	 3410.49	-1457.49	 2894.91
     19.5990	 3245.00	 3410.87	-1440.87	 2898.60
     19.6250	 3355.00	 3411.32	-1331.32	 2902.28
     19.6510	 3411.00	 3411.83	-1275.83	 2905.97
     19.6770	 3439.00	 3412.40	-1248.40	 2909.65
     19.7030	 3367.00	 3413.03	-1321.03	 2913.34
     19.7290	 3314.00	 3413.72	-1374.72	 2917.02
     19.7550	 3417.00	 3414.48	-1272.48	 2920.71
     19.7810	 3431.00	 3415.29	-1259.29	 2924.39
     19.8070	 3431.00	 3416.16	-1260.16	 2928.08
     19.8330	 3385.00	 3417.10	-1307.10	 2931.76
     19.8590	 3346.00	 3418.09	-1347.09	 2935.45
     19.8850	 3384.00	 3419.14	-1310.14	 2939.14
     19.9110	 3329.00	 3420.25	-1366.25	 2942.82
     19.9370	 3311.00	 3421.42	-1385.42	 2946.51
     19.9630	 3366.00	 3422.64	-1331.64	 2950.19
     19.9890	 3402.00	 3423.91	-1296.91	 2953.88
     20.0150	 3419.00	 3425.24	-1281.24	 2957.56
     20.0410	 3477.00	 3426.62	-1224.62	 2961.25
     20.0670	 3404.00	 3428.06	-1299.06	 2964.93
     20.0930	 3400.00	 3429.54	-1304.54	 2968.62
     20.1190	 3376.00	 3431.08	-1330.08	 2972.30
     20.1450	 3491.00	 3432.66	-1216.66	 2975.99
     20.1710	 3491.00	 3434.30	-1218.30	 2979.68
     20.1970	 3532.00	 3435.97	-1178.97	 2983.36
     20.2230	 3460.00	 3437.70	-1252.70	 2987.05
     20.2490	 3401.00	 3439.47	-1313.47	 2990.73
     20.2750	 3465.00	 3441.29	-1251.29	 2994.42
     20.3010	 3514.00	 3443.14	-1204.14	 2998.10
     20.3270	 3429.00	 3445.04	-1291.04	 3001.79
     20.3530	 3375.00	 3446.98	-1346.98	 3005.47
     20.3790	 3444.00	 3448.97	-1279.97	 3009.16
     20.4050	 3460.00	 3450.99	-1265.99	 3012.84
     20.4310	 3523.00	 3453.05	-1205.05	 3016.53
     20.4570	 3514.00	 3455.14	-1216.14	 3020.21
     20.4830	 3406.00	 3457.27	-1326.27	 3023.90
     20.5090	 3388.00	 3459.44	-1346.44	 3027.59
     20.5350	 3387.00	 3461.65	-1349.65	 3031.27
     20.5610	 3566.00	 3463.88	-1172.88	 3034.96
     20.5870	 3589.00	 3466.15	-1152.15	 3038.64
     20.6130	 3424.00	 3468.46	-1319.46	 3042.33
     20.6390	 3442.00	 3470.79	-1303.79	 3046.01
     20.6650	 3460.00	 3473.16	-1288.16	 3049.70
     20.6910	 3425.00	 3475.55	-1325.55	 3053.38
     20.7170	 3504.00	 3477.97	-1248.97	 3057.07
     20.7430	 3537.00	 3480.43	-1218.43	 3060.75
     20.7690	 3465.00	 3482.91	-1292.91	 3064.44
     20.7950	 3484.00	 3485.43	-1276.43	 3068.12
     20.8210	 3426.00	 3487.97	-1336.97	 3071.81
     20.8470	 3490.00	 3490.53	-1275.53	 3075.50
     20.8730	 3576.00	 3493.11	-1192.11	 3079.18
     20.8990	 3538.00	 3495.72	-1232.72	 3082.87
     20.9250	 3544.00	 3498.35	-1229.35	 3086.55
     20.9510	 3439.00	 3501.01	-1337.01	 3090.24
     20.9770	 3494.00	 3503.69	-1284.69	 3093.92
     21.0030	 3446.00	 3506.39	-1335.39	 3097.61
     21.0290	 3542.00	 3509.12	-1242.12	 3101.29
     21.0550	 3485.00	 3511.86	-1301.86	 3104.98
     21.0810	 3552.00	 3514.63	-1237.63	 3108.66
     21.1070	 3514.00	 3517.41	-1278.41	 3112.35
     21.1330	 3519.00	 3520.22	-1276.22	 3116.03
     21.1590	 3608.00	 3523.04	-1190.04	 3119.72
     21.1850	 3595.00	 3525.88	-1205.88	 3123.41
     21.2110	 3572.00	 3528.74	-1231.74	 3127.09
     21.2370	 3580.00	 3531.62	-1226.62	 3130.78
     21.2630	 3643.00	 3534.52	-1166.52	 3134.46
     21.2890	 3566.00	 3537.43	-1246.43	 3138.15
     21.3150	 3528.00	 3540.36	-1287.36	 3141.83
     21.3410	 3515.00	 3543.31	-1303.31	 3145.52
     21.3670	 3511.00	 3546.27	-1310.27	 3149.20
     21.3930	 3531.00	 3549.24	-1293.24	 3152.89
     21.4190	 3643.00	 3552.24	-1184.24	 3156.57
     21.4450	 3571.00	 3555.24	-1259.24	 3160.26
     21.4710	 3535.00	 3558.26	-1298.26	 3163.95
     21.4970	 3601.00	 3561.30	-1235.30	 3167.63
     21.5230	 3689.00	 3561.25	-1147.25	 3168.22
     21.5490	 3583.00	 3561.17	-1253.17	 3168.77
     21.5750	 3632.00	 3561.11	-1204.11	 3169.31
     21.6010	 3675.00	 3561.05	-1161.05	 3169.86
     21.6270	 3623.00	 3561.01	-1213.01	 3170.40
     21.6530	 3592.00	 3560.98	-1243.98	 3170.95
     21.6790	 3592.00	 3561.03	-1244.03	 3171.49
     21.7050	 3675.00	 3561.06	-1161.06	 3172.04
     21.7310	 3590.00	 3561.06	-1246.06	 3172.58
     21.7570	 3535.00	 3561.08	-1301.08	 3173.13
     21.7830	 3580.00	 3561.11	-1256.11	 3173.67
     21.8090	 3616.00	 3561.15	-1220.15	 3174.22
     21.8350	 3641.00	 3561.19	-1195.19	 3174.76
     21.8610	 3645.00	 3561.25	-1191.25	 3175.31
     21.8870	 3595.00	 3561.32	-1241.32	 3175.85
     21.9130	 3536.00	 3561.40	-1300.40	 3176.40
     21.9390	 3532.00	 3561.49	-1304.49	 3176.94
     21.9650	 3585.00	 3561.58	-1251.58	 3177.49
     21.9910	 3622.00	 3561.69	-1214.69	 3178.03
     22.0170	 3655.00	 3561.80	-1181.80	 3178.58
     22.0430	 3635.00	 3561.93	-1201.93	 3179.12
     22.0690	 3632.00	 3562.06	-1205.06	 3179.67
     22.0950	 3676.00	 3562.20	-1161.20	 3180.21
     22.1210	 3608.00	 3562.35	-1229.35	 3180.76
     22.1470	 3547.00	 3562.51	-1290.51	 3181.30
     22.1730	 3608.00	 3562.67	-1229.67	 3181.85
     22.1990	 3592.00	 3562.84	-1245.84	 3182.39
     22.2250	 3527.00	 3563.02	-1311.02	 3182.94
     22.2510	 3602.00	 3563.21	-1236.21	 3183.48
     22.2770	 3627.00	 3563.40	-1211.40	 3184.03
     22.3030	 3617.00	 3563.60	-1221.60	 3184.57
     22.3290	 3635.00	 3563.81	-1203.81	 3185.12
     22.3550	 3655.00	 3564.03	-1184.03	 3185.66
     22.3810	 3687.00	 3564.25	-1152.25	 3186.21
     22.4070	 3689.00	 3564.47	-1150.47	 3186.75
     22.4330	 3635.00	 3564.71	-1204.71	 3187.30
     22.4590	 3618.00	 3564.95	-1221.95	 3187.84
     22.4850	 3662.00	 3565.20	-1178.20	 3188.39
     22.5110	 3695.00	 3565.45	-1145.45	 3188.93
     22.5370	 3631.00	 3565.71	-1209.71	 3189.48
     22.5630	 3544.00	 3565.97	-1296.97	 3190.02
     22.5890	 3619.00	 3566.24	-1222.24	 3190.57
     22.6150	 3684.00	 3566.52	-1157.52	 3191.11
     22.6410	 3621.00	 3566.80	-1220.80	 3191.66
     22.6670	 3661.00	 3567.09	-1181.09	 3192.20
     22.6930	 3675.00	 3567.38	-1167.38	 3192.75
     22.7190	 3723.00	 3567.68	-1119.68	 3193.29
     22.7450	 3659.00	 3567.98	-1183.98	 3193.84
     22.7710	 3580.00	 3568.29	-1263.29	 3194.38
     22.7970	 3573.00	 3568.60	-1270.60	 3194.93
     22.8230	 3615.00	 3568.92	-1228.92	 3195.47
     22.8490	 3544.00	 3569.24	-1300.24	 3196.01
     22.8750	 3647.00	 3569.57	-1197.57	 3196.56
     22.9010	 3694.00	 3569.90	-1150.90	 3197.10
     22.9270	 3723.00	 3570.23	-1122.23	 3197.65
     22.9530	 3689.00	 3570.58	-1156.58	 3198.19
     22.9790	 3687.00	 3570.92	-1158.92	 3198.74
     23.0050	 3619.00	 3571.27	-1227.27	 3199.28
     23.0310	 3623.00	 3571.62	-1223.62	 3199.83
     23.0570	 3701.00	 3571.98	-1145.98	 3200.37
     23.0830	 3565.00	 3572.34	-1282.34	 3200.92
     23.1090	 3568.00	 3572.71	-1279.71	 3201.46
     23.1350	 3616.00	 3573.08	-1232.08	 3202.01
     23.1610	 3609.00	 3573.45	-1239.45	 3202.55
     23.1870	 3637.00	 3573.83	-1211.83	 3203.10
     23.2130	 3620.00	 3574.21	-1229.21	 3203.64
     23.2390	 3620.00	 3574.60	-1229.60	 3204.19
     23.2650	 3707.00	 3574.99	-1142.99	 3204.73
     23.2910	 3739.00	 3575.38	-1111.38	 3205.28
     23.3170	 3734.00	 3575.78	-1116.78	 3205.82
     23.3430	 3594.00	 3576.18	-1257.18	 3206.37
     23.3690	 3543.00	 3576.58	-1308.58	 3206.91
     23.3950	 3602.00	 3576.99	-1249.99	 3207.46
     23.4210	 3498.00	 3577.40	-1354.40	 3208.00
     23.4470	 3652.00	 3577.82	-1200.82	 3208.55
     23.4730	 3587.00	 3578.24	-1266.24	 3209.09
     23.4990	 3758.00	 3578.66	-1095.66	 3209.64
     23.5250	 3660.00	 3579.08	-1194.08	 3210.18
     23.5510	 3701.00	 3579.51	-1153.51	 3210.73
     23.5770	 3714.00	 3579.94	-1140.94	 3211.27
     23.6030	 3682.00	 3580.37	-1173.37	 3211.82
     23.6290	 3586.00	 3580.81	-1269.81	 3212.36
     23.6550	 3575.00	 3581.25	-1281.25	 3212.91
     23.6810	 3742.00	 3581.70	-1114.70	 3213.45
     23.7070	 3586.00	 3582.14	-1271.14	 3214.00
     23.7330	 3552.00	 3582.59	-1305.59	 3214.54
     23.7590	 3589.00	 3583.05	-1269.05	 3215.09
     23.7850	 3639.00	 3583.50	-1219.50	 3215.63
     23.8110	 3650.00	 3583.96	-1208.96	 3216.18
     23.8370	 3609.00	 3584.42	-1250.42	 3216.72
     23.8630	 3623.00	 3584.89	-1236.89	 3217.27
     23.8890	 3699.00	 3585.35	-1161.35	 3217.81
     23.9150	 3657.00	 3585.82	-1203.82	 3218.36
     23.9410	 3528.00	 3586.30	-1333.30	 3218.90
     23.9670	 3635.00	 3586.77	-1226.77	 3219.45
     23.9930	 3606.00	 3587.25	-1256.25	 3219.99
     24.0190	 3560.00	 3587.73	-1302.73	 3220.54
     24.0450	 3611.00	 3588.22	-1252.22	 3221.08
     24.0710	 3570.00	 3588.70	-1293.70	 3221.63
     24.0970	 3639.00	 3589.19	-1225.19	 3222.17
     24.1230	 3559.00	 3589.69	-1305.69	 3222.72
     24.1490	 3595.00	 3590.18	-1270.18	 3223.26
     24.1750	 3605.00	 3590.68	-1260.68	 3223.81
     24.2010	 3592.00	 3591.18	-1274.18	 3224.35
     24.2270	 3592.00	 3591.68	-1274.68	 3224.90
     24.2530	 3599.00	 3592.19	-1268.19	 3225.44
     24.2790	 3597.00	 3592.70	-1270.70	 3225.99
     24.3050	 3597.00	 3593.21	-1271.21	 3226.53
     24.3310	 3627.00	 3593.72	-1241.72	 3227.08
     24.3570	 3643.00	 3594.24	-1226.24	 3227.62
     24.3830	 3626.00	 3594.76	-1243.76	 3228.17
     24.4090	 3668.00	 3595.28	-1202.28	 3228.71
     24.4350	 3631.00	 3595.80	-1239.80	 3229.25
     24.4610	 3638.00	 3596.33	-1233.33	 3229.80
     24.4870	 3655.00	 3596.86	-1216.86	 3230.34
     24.5130	 3655.00	 3597.39	-1217.39	 3230.89
     24.5390	 3632.00	 3597.92	-1240.92	 3231.43
     24.5650	 3582.00	 3598.46	-1291.46	 3231.98
     24.5910	 3621.00	 3599.00	-1253.00	 3232.52
     24.6170	 3609.00	 3599.54	-1265.54	 3233.07
     24.6430	 3543.00	 3600.08	-1332.08	 3233.61
     24.6690	 3579.00	 3600.63	-1296.63	 3234.16
     24.6950	 3670.00	 3601.18	-1206.18	 3234.70
     24.7210	 3694.00	 3601.73	-1182.73	 3235.25
     24.7470	 3692.00	 3602.29	-1185.29	 3235.79
     24.7730	 3743.00	 3602.85	-1134.85	 3236.34
     24.7990	 3702.00	 3603.41	-1176.41	 3236.88
     24.8250	 3660.00	 3603.97	-1218.97	 3237.43
     24.8510	 3645.00	 3604.53	-1234.53	 3237.97
     24.8770	 3535.00	 3605.10	-1345.10	 3238.52
     24.9030	 3563.00	 3605.67	-1317.67	 3239.06
     24.9290	 3646.00	 3606.24	-1235.24	 3239.61
     24.9550	 3665.00	 3606.82	-1216.82	 3240.15
     24.9810	 3658.00	 3607.40	-1224.40	 3240.70
     25.0070	 3663.00	 3607.98	-1219.98	 3241.24
     25.0330	 3713.00	 3608.56	-1170.56	 3241.79
     25.0590	 3701.00	 3609.15	-1183.15	 3242.33
     25.0850	 3669.00	 3609.74	-1215.74	 3242.88
     25.1110	 3621.00	 3610.33	-1264.33	 3243.42
     25.1370	 3536.00	 3610.92	-1349.92	 3243.97
     25.1630	 3567.00	 3611.52	-1319.52	 3244.51
     25.1890	 3672.00	 3612.50	-1215.50	 3245.06
     25.2150	 3655.00	 3613.10	-1233.10	 3245.60
     25.2410	 3535.00	 3613.90	-1353.90	 3246.15
     25.2670	 3554.00	 3614.51	-1335.51	 3246.69
     25.2930	 3660.00	 3615.12	-1230.12	 3247.24
     25.3190	 3620.00	 3615.74	-1270.74	 3247.78
     25.3450	 3581.00	 3616.36	-1310.36	 3248.33
     25.3710	 3544.00	 3616.98	-1347.98	 3248.87
     25.3970	 3607.00	 3617.60	-1285.60	 3249.42
     25.4230	 3634.00	 3618.23	-1259.23	 3249.96
     25.4490	 3536.00	 3618.86	-1357.86	 3250.51
