 DD144    CELL:    8.37404   8.37404   8.37404   90.0000   90.0000   90.0000   SPGR: F d -3 m               TEMP:      0.00
  1   2495     1.54056     1.54443     0.00000     0.00000     0.00000    0
    32     0     0
 2Theta	Yobs	Ycal	Yobs-Ycal	Backg	Posr	(hkl)	K
     15.0230	 3588.00	 3610.48	-1727.42	 3099.41
     15.0490	 3570.00	 3612.12	-1747.07	 3100.90
     15.0750	 3597.00	 3613.77	-1721.71	 3102.40
     15.1010	 3647.00	 3615.42	-1673.36	 3103.90
     15.1270	 3609.00	 3617.07	-1713.02	 3105.39
     15.1530	 3560.00	 3618.73	-1763.67	 3106.89
     15.1790	 3699.00	 3620.39	-1626.33	 3108.39
     15.2050	 3658.00	 3622.05	-1669.00	 3109.88
     15.2310	 3594.00	 3623.72	-1734.66	 3111.38
     15.2570	 3643.00	 3625.39	-1687.33	 3112.88
     15.2830	 3669.00	 3627.06	-1663.00	 3114.37
     15.3090	 3684.00	 3628.74	-1649.68	 3115.87
     15.3350	 3578.00	 3630.42	-1757.36	 3117.37
     15.3610	 3655.00	 3632.10	-1682.05	 3118.86
     15.3870	 3606.00	 3633.79	-1732.73	 3120.36
     15.4130	 3766.00	 3635.48	-1574.43	 3121.86
     15.4390	 3682.00	 3637.18	-1660.12	 3123.35
     15.4650	 3550.00	 3638.88	-1793.83	 3124.85
     15.4910	 3619.00	 3640.58	-1726.53	 3126.35
     15.5170	 3576.00	 3642.29	-1771.24	 3127.84
     15.5430	 3556.00	 3644.01	-1792.96	 3129.34
     15.5690	 3663.00	 3645.73	-1687.68	 3130.84
     15.5950	 3697.00	 3647.46	-1655.40	 3132.33
     15.6210	 3737.00	 3649.19	-1617.13	 3133.83
     15.6470	 3801.00	 3650.92	-1554.87	 3135.33
     15.6730	 3611.00	 3652.66	-1746.61	 3136.82
     15.6990	 3662.00	 3654.41	-1697.36	 3138.32
     15.7250	 3805.00	 3656.16	-1556.11	 3139.82
     15.7510	 3749.00	 3657.92	-1613.87	 3141.31
     15.7770	 3762.00	 3659.69	-1602.64	 3142.81
     15.8030	 3776.00	 3661.46	-1590.41	 3144.31
     15.8290	 3683.00	 3663.24	-1685.19	 3145.80
     15.8550	 3766.00	 3665.03	-1603.97	 3147.30
     15.8810	 3744.00	 3666.82	-1627.77	 3148.80
     15.9070	 3755.00	 3668.62	-1618.57	 3150.29
     15.9330	 3640.00	 3670.43	-1735.38	 3151.79
     15.9590	 3674.00	 3672.25	-1703.20	 3153.29
     15.9850	 3701.00	 3674.08	-1678.03	 3154.78
     16.0110	 3729.00	 3675.91	-1651.86	 3156.28
     16.0370	 3660.00	 3677.76	-1722.71	 3157.78
     16.0630	 3715.00	 3679.61	-1669.56	 3159.27
     16.0890	 3680.00	 3682.58	-1707.53	 3161.87
     16.1150	 3758.00	 3686.46	-1633.41	 3165.37
     16.1410	 3725.00	 3690.35	-1670.30	 3168.88
     16.1670	 3717.00	 3694.25	-1682.20	 3172.38
     16.1930	 3779.00	 3698.17	-1624.11	 3175.88
     16.2190	 3807.00	 3702.09	-1600.04	 3179.38
     16.2450	 3740.00	 3706.03	-1670.98	 3182.88
     16.2710	 3698.00	 3709.98	-1716.93	 3186.39
     16.2970	 3748.00	 3713.94	-1670.89	 3189.89
     16.3230	 3678.00	 3717.92	-1744.87	 3193.39
     16.3490	 3704.00	 3721.92	-1722.86	 3196.89
     16.3750	 3818.00	 3725.92	-1612.87	 3200.39
     16.4010	 3863.00	 3729.95	-1571.89	 3203.90
     16.4270	 3811.00	 3733.99	-1627.93	 3207.40
     16.4530	 3774.00	 3738.05	-1668.99	 3210.90
     16.4790	 3789.00	 3742.12	-1658.07	 3214.40
     16.5050	 3810.00	 3746.22	-1641.16	 3217.91
     16.5310	 3804.00	 3750.33	-1651.28	 3221.41
     16.5570	 3867.00	 3754.47	-1592.41	 3224.91
     16.5830	 3894.00	 3758.62	-1569.57	 3228.41
     16.6090	 3837.00	 3762.80	-1630.74	 3231.91
     16.6350	 3804.00	 3767.00	-1667.95	 3235.42
     16.6610	 3764.00	 3771.22	-1712.17	 3238.92
     16.6870	 3804.00	 3775.47	-1676.42	 3242.42
     16.7130	 3923.00	 3779.75	-1561.70	 3245.92
     16.7390	 3831.00	 3784.06	-1658.00	 3249.42
     16.7650	 3786.00	 3788.39	-1707.33	 3252.93
     16.7910	 3897.00	 3792.75	-1600.70	 3256.43
     16.8170	 3864.00	 3797.15	-1638.09	 3259.93
     16.8430	 3792.00	 3801.57	-1714.52	 3263.43
     16.8690	 3876.00	 3806.04	-1634.98	 3266.93
     16.8950	 3980.00	 3810.54	-1535.48	 3270.44
     16.9210	 3937.00	 3816.49	-1584.44	 3275.36
     16.9470	 3861.00	 3824.43	-1668.37	 3282.22
     16.9730	 3863.00	 3832.40	-1674.35	 3289.08
     16.9990	 3893.00	 3840.42	-1652.37	 3295.95
     17.0250	 3878.00	 3848.49	-1675.43	 3302.81
     17.0510	 3882.00	 3856.60	-1679.55	 3309.67
     17.0770	 3872.00	 3864.76	-1697.71	 3316.54
     17.1030	 3871.00	 3872.97	-1706.92	 3323.40
     17.1290	 3944.00	 3881.24	-1642.18	 3330.26
     17.1550	 3930.00	 3889.56	-1664.50	 3337.12
     17.1810	 3932.00	 3897.93	-1670.88	 3343.99
     17.2070	 3966.00	 3906.37	-1645.32	 3350.85
     17.2330	 3931.00	 3914.88	-1688.82	 3357.71
     17.2590	 3961.00	 3923.44	-1667.39	 3364.58
     17.2850	 3910.00	 3932.08	-1727.03	 3371.44
     17.3110	 3930.00	 3940.79	-1715.73	 3378.30
     17.3370	 3953.00	 3949.57	-1701.51	 3385.16
     17.3630	 4131.00	 3958.42	-1532.37	 3392.03
     17.3890	 4124.00	 3967.36	-1548.30	 3398.89
     17.4150	 4046.00	 3976.38	-1635.32	 3405.75
     17.4410	 4010.00	 3985.48	-1680.42	 3412.61
     17.4670	 3875.00	 3994.66	-1824.61	 3419.48
     17.4930	 3839.00	 4003.93	-1869.88	 3426.34
     17.5190	 3943.00	 4013.30	-1775.24	 3433.20
     17.5450	 4040.00	 4022.75	-1687.70	 3440.07
     17.5710	 3978.00	 4032.30	-1759.24	 3446.93
     17.5970	 3981.00	 4041.94	-1765.88	 3453.79
     17.6230	 3959.00	 4051.67	-1797.61	 3460.65
     17.6490	 4176.00	 4061.49	-1590.44	 3467.52
     17.6750	 4040.00	 4071.40	-1736.35	 3474.38
     17.7010	 4086.00	 4081.40	-1700.35	 3481.24
     17.7270	 3992.00	 4091.49	-1804.44	 3488.11
     17.7530	 4187.00	 4101.65	-1619.60	 3494.97
     17.7790	 4102.00	 4111.89	-1714.83	 3501.83
     17.8050	 4067.00	 4120.79	-1758.73	 3507.29
     17.8310	 4142.00	 4128.71	-1691.66	 3511.72
     17.8570	 4047.00	 4136.68	-1794.62	 3516.15
     17.8830	 4025.00	 4144.68	-1824.62	 3520.57
     17.9090	 4208.00	 4152.69	-1649.64	 3525.00
     17.9350	 4080.00	 4160.71	-1785.65	 3529.43
     17.9610	 4217.00	 4168.70	-1656.65	 3533.86
     17.9870	 4139.00	 4176.65	-1742.60	 3538.29
     18.0130	 4124.00	 4184.53	-1765.48	 3542.72
     18.0390	 4075.00	 4192.33	-1822.27	 3547.15
     18.0650	 4051.00	 4200.00	-1853.95	 3551.57
     18.0910	 4222.00	 4207.53	-1690.47	 3556.00
     18.1170	 4200.00	 4214.88	-1719.83	 3560.43
     18.1430	 4142.00	 4222.03	-1784.97	 3564.86
     18.1690	 4079.00	 4228.94	-1854.89	 3569.29
     18.1950	 4016.00	 4235.59	-1924.54	 3573.72
     18.2210	 4261.00	 4241.96	-1685.91	 3578.15
     18.2470	 4289.00	 4248.02	-1663.96	 3582.57
     18.2730	 4205.00	 4253.74	-1753.69	 3587.00
     18.2990	 4326.00	 4259.12	-1638.07	 3591.43
     18.3250	 4302.00	 4264.14	-1667.09	 3595.86
     18.3510	 3990.00	 4268.80	-1983.74	 3600.29
     18.3770	 4027.00	 4273.08	-1951.03	 3604.72
     18.4030	 4133.00	 4277.00	-1848.95	 3609.15
     18.4290	 4288.00	 4280.57	-1697.51	 3613.57
     18.4550	 4257.00	 4283.78	-1731.73	 3618.00
     18.4810	 4222.00	 4286.67	-1769.62	 3622.43
     18.5070	 4135.00	 4289.25	-1859.20	 3626.86
     18.5330	 4217.00	 4291.54	-1779.49	 3631.29
     18.5590	 4127.00	 4293.58	-1871.52	 3635.72
     18.5850	 4121.00	 4295.38	-1879.32	 3640.15
     18.6110	 4222.00	 4296.98	-1779.92	 3644.57
     18.6370	 4203.00	 4298.40	-1800.34	 3649.00
     18.6630	 4198.00	 4299.68	-1806.62	 3653.43
     18.6890	 4191.00	 4300.84	-1814.78	 3657.86
     18.7150	 4162.00	 4301.91	-1844.85	 3662.29
     18.7410	 4140.00	 4302.91	-1867.86	 3666.72
     18.7670	 4206.00	 4303.88	-1802.82	 3671.14
     18.7930	 4219.00	 4304.82	-1790.77	 3675.57
     18.8190	 4136.00	 4305.77	-1874.71	 3680.00
     18.8450	 4212.00	 4306.73	-1799.67	 3684.43
     18.8710	 4238.00	 4307.72	-1774.66	 3688.86
     18.8970	 4219.00	 4308.75	-1794.70	 3693.29
     18.9230	 4201.00	 4309.85	-1813.79	 3697.72
     18.9490	 4217.00	 4311.01	-1798.95	 3702.14
     18.9750	 4108.00	 4312.24	-1909.19	 3706.57
     19.0010	 4168.00	 4313.55	-1850.50	 3711.00
     19.0270	 4216.00	 4314.95	-1803.89	 3715.43
     19.0530	 4157.00	 4316.43	-1864.38	 3719.86
     19.0790	 4200.00	 4318.00	-1822.95	 3724.29
     19.1050	 4178.00	 4319.67	-1846.62	 3728.72
     19.1310	 4172.00	 4321.43	-1854.38	 3733.14
     19.1570	 4230.00	 4320.67	-1795.62	 3734.96
     19.1830	 4280.00	 4319.86	-1744.80	 3736.63
     19.2090	 4171.00	 4319.13	-1853.08	 3738.30
     19.2350	 4101.00	 4318.50	-1922.44	 3739.97
     19.2610	 4161.00	 4317.95	-1861.90	 3741.64
     19.2870	 4235.00	 4317.49	-1787.44	 3743.31
     19.3130	 4133.00	 4317.11	-1889.06	 3744.98
     19.3390	 4188.00	 4316.82	-1833.76	 3746.65
     19.3650	 4302.00	 4316.60	-1719.55	 3748.32
     19.3910	 4259.00	 4316.46	-1762.41	 3750.00
     19.4170	 4228.00	 4316.39	-1793.34	 3751.67
     19.4430	 4251.00	 4316.40	-1770.34	 3753.34
     19.4690	 4276.00	 4316.47	-1745.41	 3755.01
     19.4950	 4234.00	 4316.61	-1787.55	 3756.68
     19.5210	 4263.00	 4316.81	-1758.75	 3758.35
     19.5470	 4225.00	 4317.07	-1797.01	 3760.02
     19.5730	 4119.00	 4317.39	-1903.33	 3761.69
     19.5990	 4157.00	 4317.76	-1865.71	 3763.36
     19.6250	 4186.00	 4318.19	-1837.14	 3765.03
     19.6510	 4239.00	 4318.98	-1784.93	 3766.70
     19.6770	 4313.00	 4319.51	-1711.46	 3768.37
     19.7030	 4297.00	 4320.09	-1728.03	 3770.04
     19.7290	 4222.00	 4320.71	-1803.66	 3771.71
     19.7550	 4247.00	 4321.37	-1779.32	 3773.38
     19.7810	 4404.00	 4322.23	-1623.18	 3775.05
     19.8070	 4371.00	 4322.98	-1656.93	 3776.72
     19.8330	 4315.00	 4323.76	-1713.71	 3778.39
     19.8590	 4266.00	 4324.58	-1763.53	 3780.06
     19.8850	 4373.00	 4325.44	-1657.38	 3781.73
     19.9110	 4342.00	 4326.32	-1689.27	 3783.40
     19.9370	 4255.00	 4327.24	-1777.19	 3785.07
     19.9630	 4284.00	 4328.19	-1749.14	 3786.74
     19.9890	 4376.00	 4329.17	-1658.12	 3788.41
     20.0150	 4329.00	 4330.18	-1706.12	 3790.08
     20.0410	 4332.00	 4331.21	-1704.15	 3791.75
     20.0670	 4375.00	 4332.27	-1662.21	 3793.42
     20.0930	 4319.00	 4333.35	-1719.30	 3795.09
     20.1190	 4404.00	 4334.46	-1635.40	 3796.76
     20.1450	 4279.00	 4335.58	-1761.53	 3798.43
     20.1710	 4367.00	 4336.73	-1674.68	 3800.10
     20.1970	 4374.00	 4337.91	-1668.85	 3801.77
     20.2230	 4294.00	 4339.10	-1750.04	 3803.44
     20.2490	 4384.00	 4340.31	-1661.25	 3805.11
     20.2750	 4394.00	 4341.53	-1652.48	 3806.78
     20.3010	 4356.00	 4342.78	-1691.72	 3808.45
     20.3270	 4392.00	 4344.04	-1656.99	 3810.12
     20.3530	 4375.00	 4345.32	-1675.27	 3811.79
     20.3790	 4357.00	 4346.61	-1694.56	 3813.46
     20.4050	 4386.00	 4347.92	-1666.87	 3815.13
     20.4310	 4475.00	 4349.25	-1579.19	 3816.80
     20.4570	 4403.00	 4350.58	-1652.53	 3818.47
     20.4830	 4464.00	 4351.93	-1592.88	 3820.15
     20.5090	 4438.00	 4353.30	-1620.24	 3821.82
     20.5350	 4343.00	 4354.67	-1716.62	 3823.49
     20.5610	 4426.00	 4356.06	-1635.01	 3825.16
     20.5870	 4349.00	 4357.46	-1713.41	 3826.83
     20.6130	 4461.00	 4358.87	-1602.82	 3828.50
     20.6390	 4452.00	 4360.29	-1613.24	 3830.17
     20.6650	 4378.00	 4361.72	-1688.67	 3831.84
     20.6910	 4645.00	 4363.16	-1423.11	 3833.51
     20.7170	 4431.00	 4364.61	-1638.56	 3835.18
     20.7430	 4640.00	 4366.07	-1431.02	 3836.85
     20.7690	 4554.00	 4367.54	-1518.49	 3838.52
     20.7950	 4397.00	 4369.02	-1676.97	 3840.19
     20.8210	 4544.00	 4370.51	-1531.45	 3841.86
     20.8470	 4496.00	 4372.00	-1580.95	 3843.53
     20.8730	 4491.00	 4373.50	-1587.45	 3845.20
     20.8990	 4517.00	 4375.01	-1562.96	 3846.87
     20.9250	 4640.00	 4376.53	-1441.48	 3848.54
     20.9510	 4572.00	 4378.06	-1511.00	 3850.21
     20.9770	 4544.00	 4379.59	-1540.53	 3851.88
     21.0030	 4586.00	 4381.30	-1500.25	 3853.73
     21.0290	 4453.00	 4383.59	-1635.54	 3856.14
     21.0550	 4584.00	 4385.88	-1506.83	 3858.55
     21.0810	 4533.00	 4388.18	-1560.13	 3860.96
     21.1070	 4553.00	 4390.49	-1542.43	 3863.38
     21.1330	 4621.00	 4392.80	-1476.75	 3865.79
     21.1590	 4529.00	 4395.12	-1571.06	 3868.20
     21.1850	 4536.00	 4397.44	-1566.38	 3870.61
     21.2110	 4532.00	 4399.77	-1572.71	 3873.03
     21.2370	 4533.00	 4402.10	-1574.05	 3875.44
     21.2630	 4525.00	 4404.44	-1584.38	 3877.85
     21.2890	 4482.00	 4406.78	-1629.73	 3880.26
     21.3150	 4496.00	 4409.13	-1618.08	 3882.68
     21.3410	 4535.00	 4411.48	-1581.43	 3885.09
     21.3670	 4561.00	 4413.84	-1557.79	 3887.50
     21.3930	 4637.00	 4416.20	-1484.15	 3889.92
     21.4190	 4571.00	 4418.57	-1552.51	 3892.33
     21.4450	 4536.00	 4420.94	-1589.88	 3894.74
     21.4710	 4608.00	 4423.31	-1520.26	 3897.15
     21.4970	 4600.00	 4425.69	-1530.64	 3899.57
     21.5230	 4542.00	 4428.07	-1591.02	 3901.98
     21.5490	 4685.00	 4430.46	-1450.41	 3904.39
     21.5750	 4608.00	 4432.85	-1529.80	 3906.80
     21.6010	 4571.00	 4435.24	-1569.19	 3909.22
     21.6270	 4563.00	 4437.64	-1579.59	 3911.63
     21.6530	 4566.00	 4440.04	-1578.99	 3914.04
     21.6790	 4482.00	 4442.45	-1665.39	 3916.45
     21.7050	 4580.00	 4444.86	-1569.80	 3918.87
     21.7310	 4617.00	 4447.27	-1535.21	 3921.28
     21.7570	 4556.00	 4449.68	-1598.63	 3923.69
     21.7830	 4623.00	 4452.10	-1534.05	 3926.10
     21.8090	 4649.00	 4454.52	-1510.47	 3928.52
     21.8350	 4631.00	 4456.95	-1530.89	 3930.93
     21.8610	 4568.00	 4459.38	-1596.32	 3933.34
     21.8870	 4542.00	 4461.81	-1624.75	 3935.75
     21.9130	 4658.00	 4464.24	-1511.19	 3938.17
     21.9390	 4629.00	 4466.68	-1542.62	 3940.58
     21.9650	 4550.00	 4469.12	-1624.06	 3942.99
     21.9910	 4632.00	 4471.56	-1544.51	 3945.40
     22.0170	 4657.00	 4474.01	-1521.95	 3947.82
     22.0430	 4598.00	 4476.45	-1583.40	 3950.23
     22.0690	 4584.00	 4478.91	-1599.85	 3952.64
     22.0950	 4643.00	 4481.36	-1543.31	 3955.05
     22.1210	 4669.00	 4483.82	-1519.76	 3957.47
     22.1470	 4595.00	 4486.28	-1596.22	 3959.88
     22.1730	 4643.00	 4488.74	-1550.68	 3962.29
     22.1990	 4709.00	 4491.20	-1487.15	 3964.70
     22.2250	 4624.00	 4493.67	-1574.61	 3967.12
     22.2510	 4617.00	 4496.14	-1584.08	 3969.53
     22.2770	 4655.00	 4498.61	-1548.56	 3971.94
     22.3030	 4682.00	 4501.08	-1524.03	 3974.35
     22.3290	 4705.00	 4503.56	-1503.51	 3976.77
     22.3550	 4630.00	 4506.04	-1580.99	 3979.18
     22.3810	 4539.00	 4508.52	-1674.47	 3981.59
     22.4070	 4521.00	 4511.01	-1694.95	 3984.00
     22.4330	 4642.00	 4513.49	-1576.44	 3986.42
     22.4590	 4694.00	 4515.98	-1526.93	 3988.83
     22.4850	 4680.00	 4518.48	-1543.42	 3991.24
     22.5110	 4668.00	 4520.97	-1557.92	 3993.65
     22.5370	 4621.00	 4523.47	-1607.41	 3996.07
     22.5630	 4602.00	 4525.96	-1628.91	 3998.48
     22.5890	 4605.00	 4528.46	-1628.41	 4000.89
     22.6150	 4663.00	 4530.97	-1572.91	 4003.31
     22.6410	 4584.00	 4533.95	-1654.89	 4005.72
     22.6670	 4595.00	 4536.46	-1646.40	 4008.13
     22.6930	 4678.00	 4538.97	-1565.91	 4010.54
     22.7190	 4595.00	 4541.48	-1651.43	 4012.96
     22.7450	 4566.00	 4544.00	-1682.94	 4015.37
     22.7710	 4733.00	 4545.30	-1517.25	 4016.33
     22.7970	 4702.00	 4545.15	-1548.09	 4016.07
     22.8230	 4662.00	 4545.00	-1587.94	 4015.81
     22.8490	 4666.00	 4544.85	-1583.80	 4015.55
     22.8750	 4687.00	 4544.71	-1562.65	 4015.29
     22.9010	 4670.00	 4544.56	-1579.51	 4015.04
     22.9270	 4669.00	 4544.42	-1580.37	 4014.78
     22.9530	 4631.00	 4544.29	-1618.23	 4014.52
     22.9790	 4618.00	 4544.15	-1631.10	 4014.26
     23.0050	 4717.00	 4544.02	-1531.96	 4014.00
     23.0310	 4582.00	 4543.89	-1666.83	 4013.74
     23.0570	 4644.00	 4543.76	-1604.70	 4013.48
     23.0830	 4685.00	 4543.63	-1563.58	 4013.22
     23.1090	 4590.00	 4543.51	-1658.45	 4012.96
     23.1350	 4634.00	 4543.38	-1614.33	 4012.70
     23.1610	 4742.00	 4543.26	-1506.21	 4012.44
     23.1870	 4632.00	 4543.15	-1616.09	 4012.18
     23.2130	 4566.00	 4543.03	-1681.98	 4011.92
     23.2390	 4564.00	 4542.92	-1683.86	 4011.66
     23.2650	 4678.00	 4542.81	-1569.75	 4011.41
     23.2910	 4622.00	 4542.70	-1625.64	 4011.15
     23.3170	 4563.00	 4542.59	-1684.54	 4010.89
     23.3430	 4702.00	 4542.49	-1545.44	 4010.63
     23.3690	 4635.00	 4542.39	-1612.33	 4010.37
     23.3950	 4616.00	 4542.29	-1631.24	 4010.11
     23.4210	 4638.00	 4542.19	-1609.14	 4009.85
     23.4470	 4532.00	 4542.10	-1715.04	 4009.59
     23.4730	 4528.00	 4542.01	-1718.95	 4009.33
     23.4990	 4645.00	 4541.92	-1601.86	 4009.07
     23.5250	 4602.00	 4541.83	-1644.78	 4008.81
     23.5510	 4559.00	 4541.75	-1687.69	 4008.55
     23.5770	 4736.00	 4541.67	-1510.61	 4008.29
     23.6030	 4658.00	 4541.59	-1588.53	 4008.03
     23.6290	 4507.00	 4541.51	-1739.46	 4007.78
     23.6550	 4564.00	 4541.44	-1682.38	 4007.52
     23.6810	 4525.00	 4541.36	-1721.31	 4007.26
     23.7070	 4744.00	 4541.30	-1502.24	 4007.00
     23.7330	 4639.00	 4541.23	-1607.17	 4006.74
     23.7590	 4640.00	 4541.17	-1606.11	 4006.48
     23.7850	 4559.00	 4541.10	-1687.05	 4006.22
     23.8110	 4627.00	 4541.05	-1618.99	 4005.96
     23.8370	 4581.00	 4540.99	-1664.94	 4005.70
     23.8630	 4544.00	 4540.94	-1701.88	 4005.44
     23.8890	 4666.00	 4540.89	-1579.83	 4005.18
     23.9150	 4683.00	 4540.84	-1562.79	 4004.92
     23.9410	 4572.00	 4540.80	-1673.74	 4004.66
     23.9670	 4537.00	 4540.75	-1708.70	 4004.40
     23.9930	 4629.00	 4540.71	-1616.66	 4004.15
     24.0190	 4593.00	 4540.68	-1652.62	 4003.89
     24.0450	 4532.00	 4540.65	-1713.59	 4003.63
     24.0710	 4557.00	 4540.62	-1688.56	 4003.37
     24.0970	 4626.00	 4540.59	-1619.53	 4003.11
     24.1230	 4589.00	 4540.56	-1656.51	 4002.85
     24.1490	 4571.00	 4540.54	-1674.49	 4002.59
     24.1750	 4558.00	 4540.53	-1687.47	 4002.33
     24.2010	 4531.00	 4540.51	-1714.46	 4002.07
     24.2270	 4617.00	 4540.50	-1628.45	 4001.81
     24.2530	 4597.00	 4540.49	-1648.44	 4001.55
     24.2790	 4527.00	 4540.49	-1718.43	 4001.29
     24.3050	 4519.00	 4540.49	-1726.43	 4001.03
     24.3310	 4558.00	 4540.49	-1687.43	 4000.77
     24.3570	 4601.00	 4540.49	-1644.44	 4000.52
     24.3830	 4645.00	 4540.50	-1600.45	 4000.26
     24.4090	 4570.00	 4540.51	-1675.46	 4000.00
     24.4350	 4480.00	 4540.53	-1765.47	 3999.74
     24.4610	 4518.00	 4540.55	-1727.49	 3999.48
     24.4870	 4532.00	 4540.57	-1713.52	 3999.22
     24.5130	 4507.00	 4540.60	-1738.54	 3998.96
     24.5390	 4483.00	 4540.63	-1762.57	 3998.70
     24.5650	 4491.00	 4540.66	-1754.61	 3998.44
     24.5910	 4469.00	 4540.21	-1776.15	 3997.69
     24.6170	 4461.00	 4539.37	-1783.31	 3996.55
     24.6430	 4481.00	 4538.53	-1762.47	 3995.40
     24.6690	 4477.00	 4537.69	-1765.64	 3994.26
     24.6950	 4444.00	 4536.86	-1797.81	 3993.11
     24.7210	 4495.00	 4536.03	-1745.98	 3991.97
     24.7470	 4587.00	 4535.21	-1653.16	 3990.83
     24.7730	 4542.00	 4534.39	-1697.34	 3989.68
     24.7990	 4486.00	 4533.58	-1752.52	 3988.54
     24.8250	 4435.00	 4532.77	-1802.71	 3987.39
     24.8510	 4451.00	 4531.96	-1785.91	 3986.25
     24.8770	 4548.00	 4531.16	-1688.11	 3985.10
     24.9030	 4527.00	 4530.36	-1708.31	 3983.96
     24.9290	 4454.00	 4529.57	-1780.52	 3982.82
     24.9550	 4406.00	 4528.79	-1827.73	 3981.67
     24.9810	 4458.00	 4528.00	-1774.95	 3980.53
     25.0070	 4564.00	 4527.23	-1668.17	 3979.38
     25.0330	 4585.00	 4526.45	-1646.40	 3978.24
     25.0590	 4428.00	 4525.69	-1802.63	 3977.10
     25.0850	 4366.00	 4524.92	-1863.87	 3975.95
     25.1110	 4392.00	 4524.17	-1837.11	 3974.81
     25.1370	 4442.00	 4523.42	-1786.36	 3973.66
     25.1630	 4403.00	 4522.67	-1824.62	 3972.52
     25.1890	 4399.00	 4521.93	-1827.88	 3971.37
     25.2150	 4457.00	 4521.19	-1769.14	 3970.23
     25.2410	 4451.00	 4520.47	-1774.41	 3969.09
     25.2670	 4410.00	 4519.74	-1814.69	 3967.94
     25.2930	 4458.00	 4519.02	-1765.97	 3966.80
     25.3190	 4478.00	 4518.31	-1745.26	 3965.65
     25.3450	 4434.00	 4517.61	-1788.55	 3964.51
     25.3710	 4478.00	 4516.91	-1743.85	 3963.37
     25.3970	 4496.00	 4516.22	-1725.16	 3962.22
     25.4230	 4471.00	 4515.53	-1749.48	 3961.08
     25.4490	 4474.00	 4514.85	-1745.80	 3959.93
