 AH10    CELL:    8.38953   8.38953   8.38953   90.0000   90.0000   90.0000   SPGR: F d -3 m               TEMP:      0.00
  1   2874     1.54056     1.54439    -0.02150    -0.00130     0.00000    0
   94    0    0
 2Theta	Yobs	Ycal	Yobs-Ycal	Backg	Bragg	Posr	(hkl)	K
      5.1690	 4544.00	 4550.03	-1294.97	 4242.90	     18.2781	       0	(  1  1  1)	  0  1
      5.1950	 4535.00	 4535.93	-1289.87	 4228.79	     18.3240	       0	(  1  1  1)	  0  2
      5.2210	 4508.00	 4521.86	-1302.80	 4214.72	     30.0807	       0	(  2  2  0)	  0  1
      5.2470	 4492.00	 4507.84	-1304.78	 4200.69	     30.1573	       0	(  2  2  0)	  0  2
      5.2730	 4496.00	 4493.85	-1286.79	 4186.70	     35.4352	       0	(  3  1  1)	  0  1
      5.2990	 4491.00	 4479.90	-1277.84	 4172.74	     35.5262	       0	(  3  1  1)	  0  2
      5.3250	 4450.00	 4465.99	-1304.93	 4158.83	     37.0680	       0	(  2  2  2)	  0  1
      5.3510	 4518.00	 4452.12	-1223.06	 4144.95	     37.1635	       0	(  2  2  2)	  0  2
      5.3770	 4381.00	 4438.29	-1346.23	 4131.12	     43.0705	       0	(  4  0  0)	  0  1
      5.4030	 4371.00	 4424.50	-1342.44	 4117.32	     43.1830	       0	(  4  0  0)	  0  2
      5.4290	 4428.00	 4410.75	-1271.69	 4103.57	     47.1600	       0	(  3  3  1)	  0  1
      5.4550	 4449.00	 4397.04	-1236.98	 4089.86	     47.2844	       0	(  3  3  1)	  0  2
      5.4810	 4453.00	 4383.37	-1219.31	 4076.18	     53.4388	       0	(  4  2  2)	  0  1
      5.5070	 4321.00	 4369.74	-1337.68	 4062.55	     53.5822	       0	(  4  2  2)	  0  2
      5.5330	 4249.00	 4356.15	-1396.09	 4048.95	     56.9674	       0	(  3  3  3)	  0  1
      5.5590	 4415.00	 4342.60	-1216.54	 4035.40	     56.9674	       0	(  5  1  1)	  0  1
      5.5850	 4342.00	 4329.10	-1276.04	 4021.89	     57.1220	       0	(  5  1  1)	  0  2
      5.6110	 4361.00	 4315.63	-1243.57	 4008.42	     57.1220	       0	(  3  3  3)	  0  2
      5.6370	 4382.00	 4302.21	-1209.15	 3994.99	     62.5590	       0	(  4  4  0)	  0  1
      5.6630	 4286.00	 4288.83	-1291.77	 3981.60	     62.7321	       0	(  4  4  0)	  0  2
      5.6890	 4327.00	 4275.49	-1237.43	 3968.26	     65.7785	       0	(  5  3  1)	  0  1
      5.7150	 4248.00	 4262.19	-1303.13	 3954.96	     65.9628	       0	(  5  3  1)	  0  2
      5.7410	 4235.00	 4248.94	-1302.87	 3941.69	     66.8332	       0	(  4  4  2)	  0  1
      5.7670	 4244.00	 4235.72	-1280.66	 3928.48	     67.0213	       0	(  4  4  2)	  0  2
      5.7930	 4348.00	 4222.55	-1163.49	 3915.30	     70.9751	       0	(  6  2  0)	  0  1
      5.8190	 4252.00	 4209.43	-1246.36	 3902.17	     71.1783	       0	(  6  2  0)	  0  2
      5.8450	 4266.00	 4196.34	-1219.28	 3889.08	     74.0138	       0	(  5  3  3)	  0  1
      5.8710	 4134.00	 4183.30	-1338.24	 3876.03	     74.2287	       0	(  5  3  3)	  0  2
      5.8970	 4204.00	 4170.30	-1255.24	 3863.03	     75.0161	       0	(  6  2  2)	  0  1
      5.9230	 4192.00	 4157.35	-1254.29	 3850.07	     75.2349	       0	(  6  2  2)	  0  2
      5.9490	 4247.00	 4144.44	-1186.38	 3837.16	     78.9822	       0	(  4  4  4)	  0  1
      5.9750	 4253.00	 4131.57	-1167.51	 3824.29	     79.2172	       0	(  4  4  4)	  0  2
      6.0010	 4176.00	 4118.75	-1231.69	 3811.46	     81.9211	       0	(  5  5  1)	  0  1
      6.0270	 4153.00	 4105.98	-1241.91	 3798.68	     81.9211	       0	(  7  1  1)	  0  1
      6.0530	 4093.00	 4093.24	-1289.18	 3785.94	     82.1686	       0	(  5  5  1)	  0  2
      6.0790	 4095.00	 4080.56	-1274.49	 3773.25	     82.1686	       0	(  7  1  1)	  0  2
      6.1050	 4043.00	 4067.91	-1313.85	 3760.60	     86.7760	       0	(  6  4  2)	  0  1
      6.1310	 4060.00	 4055.31	-1284.25	 3748.00	     87.0455	       0	(  6  4  2)	  0  2
      6.1570	 4060.00	 4042.76	-1271.70	 3735.44	     89.6756	       0	(  5  5  3)	  0  1
      6.1830	 4059.00	 4030.26	-1260.19	 3722.93	     89.6756	       0	(  7  3  1)	  0  1
      6.2090	 4027.00	 4017.79	-1279.73	 3710.46	     89.9592	       0	(  5  5  3)	  0  2
      6.2350	 3955.00	 4005.38	-1339.31	 3698.04	     89.9592	       0	(  7  3  1)	  0  2
      6.2610	 4026.00	 3993.01	-1255.95	 3685.66	     94.5104	       0	(  8  0  0)	  0  1
      6.2870	 4028.00	 3980.68	-1241.62	 3673.33	     94.8190	       0	(  8  0  0)	  0  2
      6.3130	 3965.00	 3968.41	-1292.34	 3661.05	     97.4246	       0	(  7  3  3)	  0  1
      6.3390	 4008.00	 3956.17	-1237.11	 3648.81	     97.7495	       0	(  7  3  3)	  0  2
      6.3650	 4043.00	 3943.99	-1189.93	 3636.62	     98.4000	       0	(  6  4  4)	  0  1
      6.3910	 4013.00	 3931.85	-1207.79	 3624.48	     98.7305	       0	(  6  4  4)	  0  2
      6.4170	 4005.00	 3919.76	-1203.70	 3612.38	    102.3291	       0	(  6  6  0)	  0  1
      6.4430	 3977.00	 3907.72	-1219.66	 3600.33	    102.3291	       0	(  8  2  2)	  0  1
      6.4690	 3954.00	 3895.72	-1230.66	 3588.33	    102.6837	       0	(  6  6  0)	  0  2
      6.4950	 3969.00	 3883.77	-1203.71	 3576.38	    102.6837	       0	(  8  2  2)	  0  2
      6.5210	 3902.00	 3871.87	-1258.81	 3564.47	    105.3142	       0	(  5  5  5)	  0  1
      6.5470	 3868.00	 3860.02	-1280.95	 3552.61	    105.3142	       0	(  7  5  1)	  0  1
      6.5730	 3854.00	 3848.21	-1283.15	 3540.80	    105.6883	       0	(  5  5  5)	  0  2
      6.5990	 3874.00	 3836.45	-1251.39	 3529.03	    105.6883	       0	(  7  5  1)	  0  2
      6.6250	 3885.00	 3824.74	-1228.68	 3517.32	    106.3183	       0	(  6  6  2)	  0  1
      6.6510	 3852.00	 3813.08	-1250.02	 3505.65	    106.6994	       0	(  6  6  2)	  0  2
      6.6770	 3874.00	 3801.47	-1216.41	 3494.03	    110.3909	       0	(  8  4  0)	  0  1
      6.7030	 3839.00	 3789.90	-1239.84	 3482.46	    110.8017	       0	(  8  4  0)	  0  2
      6.7290	 3689.00	 3778.38	-1378.32	 3470.94	    113.5163	       0	(  7  5  3)	  0  1
      6.7550	 3676.00	 3766.92	-1379.85	 3459.46	    113.5163	       0	(  9  1  1)	  0  1
      6.7810	 3755.00	 3755.50	-1289.43	 3448.04	    113.9522	       0	(  7  5  3)	  0  2
      6.8070	 3774.00	 3744.13	-1259.07	 3436.66	    113.9522	       0	(  9  1  1)	  0  2
      6.8330	 3862.00	 3732.81	-1159.75	 3425.33	    114.5743	       0	(  8  4  2)	  0  1
      6.8590	 3745.00	 3721.54	-1265.47	 3414.06	    115.0192	       0	(  8  4  2)	  0  2
      6.8850	 3720.00	 3710.31	-1279.25	 3402.83	    118.9029	       0	(  6  6  4)	  0  1
      6.9110	 3738.00	 3699.14	-1250.08	 3391.65	    119.3873	       0	(  6  6  4)	  0  2
      6.9370	 3707.00	 3688.02	-1269.96	 3380.52	    122.2706	       0	(  9  3  1)	  0  1
      6.9630	 3608.00	 3676.95	-1357.88	 3369.44	    122.7895	       0	(  9  3  1)	  0  2
      6.9890	 3704.00	 3665.92	-1250.86	 3358.41	    128.1878	       0	(  8  4  4)	  0  1
      7.0150	 3678.00	 3654.95	-1265.89	 3347.43	    128.7775	       0	(  8  4  4)	  0  2
      7.0410	 3631.00	 3644.03	-1301.97	 3336.50	    131.9774	       0	(  7  5  5)	  0  1
      7.0670	 3556.00	 3633.16	-1366.09	 3325.63	    131.9774	       0	(  7  7  1)	  0  1
      7.0930	 3674.00	 3622.33	-1237.27	 3314.80	    131.9774	       0	(  9  3  3)	  0  1
      7.1190	 3541.00	 3611.56	-1359.50	 3304.02	    132.6210	       0	(  7  5  5)	  0  2
      7.1450	 3470.00	 3600.84	-1419.78	 3293.29	    132.6210	       0	(  7  7  1)	  0  2
      7.1710	 3531.00	 3590.17	-1348.11	 3282.61	    132.6210	       0	(  9  3  3)	  0  2
      7.1970	 3407.00	 3579.55	-1461.49	 3271.99	    138.8658	       0	( 10  2  0)	  0  1
      7.2230	 3550.00	 3568.98	-1307.92	 3261.41	    138.8658	       0	(  8  6  2)	  0  1
      7.2490	 3447.00	 3558.47	-1400.40	 3250.89	    139.6319	       0	( 10  2  0)	  0  2
      7.2750	 3396.00	 3548.00	-1440.94	 3240.42	    139.6319	       0	(  8  6  2)	  0  2
      7.3010	 3544.00	 3537.58	-1282.52	 3230.00	    143.4921	       0	(  7  7  3)	  0  1
      7.3270	 3378.00	 3527.22	-1438.16	 3219.62	    143.4921	       0	(  9  5  1)	  0  1
      7.3530	 3478.00	 3516.91	-1327.85	 3209.31	    144.3660	       0	(  7  7  3)	  0  2
      7.3790	 3492.00	 3506.65	-1303.58	 3199.04	    144.3660	       0	(  9  5  1)	  0  2
      7.4050	 3424.00	 3496.44	-1361.38	 3188.82	    145.1492	       0	( 10  2  2)	  0  1
      7.4310	 3392.00	 3486.28	-1383.22	 3178.66	    145.1493	       0	(  6  6  6)	  0  1
      7.4570	 3504.00	 3476.17	-1261.11	 3168.54	    146.0688	       0	( 10  2  2)	  0  2
      7.4830	 3397.00	 3466.12	-1358.06	 3158.48	    146.0688	       0	(  6  6  6)	  0  2
      7.5090	 3405.00	 3456.12	-1340.06	 3148.48	    159.8427	       0	(  9  5  3)	  0  1
      7.5350	 3480.00	 3446.17	-1255.11	 3138.52	    161.5152	       0	(  9  5  3)	  0  2
      7.5610	 3445.00	 3436.27	-1280.21	 3128.61	    162.8681	       0	(  8  6  4)	  0  1
      7.5870	 3396.00	 3426.42	-1319.36	 3118.76	    164.8781	       0	(  8  6  4)	  0  2
      7.6130	 3391.00	 3416.63	-1314.57	 3108.96
      7.6390	 3250.00	 3406.89	-1445.83	 3099.21
      7.6650	 3328.00	 3397.20	-1358.14	 3089.52
      7.6910	 3308.00	 3387.57	-1368.51	 3079.87
      7.7170	 3434.00	 3377.98	-1232.92	 3070.28
      7.7430	 3423.00	 3368.45	-1234.39	 3060.75
      7.7690	 3309.00	 3358.98	-1338.91	 3051.26
      7.7950	 3337.00	 3349.55	-1301.49	 3041.83
      7.8210	 3223.00	 3340.18	-1406.12	 3032.45
      7.8470	 3259.00	 3330.86	-1360.80	 3023.12
      7.8730	 3225.00	 3321.59	-1385.53	 3013.85
      7.8990	 3211.00	 3312.38	-1390.32	 3004.63
      7.9250	 3217.00	 3303.22	-1375.16	 2995.46
      7.9510	 3274.00	 3294.11	-1309.05	 2986.35
      7.9770	 3248.00	 3285.06	-1326.00	 2977.28
      8.0030	 3330.00	 3276.06	-1235.00	 2968.28
      8.0290	 3220.00	 3267.11	-1336.05	 2959.32
      8.0550	 3183.00	 3258.22	-1364.16	 2950.42
      8.0810	 3133.00	 3249.38	-1405.32	 2941.57
      8.1070	 3136.00	 3240.59	-1393.53	 2932.78
      8.1330	 3147.00	 3231.86	-1373.80	 2924.04
      8.1590	 3173.00	 3223.18	-1339.12	 2915.35
      8.1850	 3091.00	 3214.55	-1412.49	 2906.71
      8.2110	 3078.00	 3205.98	-1416.92	 2898.13
      8.2370	 3070.00	 3197.46	-1416.40	 2889.61
      8.2630	 3097.00	 3189.00	-1380.94	 2881.13
      8.2890	 3126.00	 3180.59	-1343.52	 2872.72
      8.3150	 3110.00	 3172.23	-1351.17	 2864.35
      8.3410	 3111.00	 3163.93	-1341.86	 2856.04
      8.3670	 3108.00	 3155.68	-1336.62	 2847.78
      8.3930	 3159.00	 3147.48	-1277.42	 2839.58
      8.4190	 3070.00	 3139.34	-1358.28	 2831.43
      8.4450	 3047.00	 3131.27	-1373.21	 2823.33
      8.4710	 3017.00	 3123.23	-1395.17	 2815.29
      8.4970	 3096.00	 3115.26	-1308.19	 2807.30
      8.5230	 3116.00	 3107.33	-1280.27	 2799.36
      8.5490	 3093.00	 3099.47	-1295.40	 2791.48
      8.5750	 3094.00	 3091.65	-1286.58	 2783.66
      8.6010	 3000.00	 3083.88	-1372.82	 2775.88
      8.6270	 2931.00	 3076.17	-1434.11	 2768.17
      8.6530	 2986.00	 3068.52	-1371.46	 2760.50
      8.6790	 3015.00	 3060.92	-1334.85	 2752.89
      8.7050	 2999.00	 3053.37	-1343.31	 2745.33
      8.7310	 3032.00	 3045.88	-1302.81	 2737.83
      8.7570	 3037.00	 3038.44	-1290.37	 2730.38
      8.7830	 3051.00	 3031.05	-1268.99	 2722.99
      8.8090	 3015.00	 3023.72	-1297.66	 2715.65
      8.8350	 2987.00	 3016.44	-1318.38	 2708.36
      8.8610	 3041.00	 3009.22	-1257.16	 2701.13
      8.8870	 2996.00	 3002.05	-1294.99	 2693.95
      8.9130	 3012.00	 2994.94	-1271.88	 2686.83
      8.9390	 2993.00	 2987.88	-1283.82	 2679.76
      8.9650	 2924.00	 2980.87	-1345.81	 2672.74
      8.9910	 2975.00	 2973.92	-1287.86	 2665.78
      9.0170	 3005.00	 2967.02	-1250.96	 2658.87
      9.0430	 2968.00	 2960.18	-1281.11	 2652.02
      9.0690	 2910.00	 2953.39	-1332.33	 2645.22
      9.0950	 2887.00	 2946.65	-1348.59	 2638.47
      9.1210	 2870.00	 2939.97	-1358.91	 2631.78
      9.1470	 2928.00	 2933.34	-1294.28	 2625.14
      9.1730	 2943.00	 2926.77	-1272.71	 2618.56
      9.1990	 2902.00	 2920.25	-1307.19	 2612.03
      9.2250	 2975.00	 2913.78	-1227.72	 2605.55
      9.2510	 2993.00	 2907.37	-1203.31	 2599.13
      9.2770	 2905.00	 2901.01	-1284.95	 2592.76
      9.3030	 2862.00	 2894.71	-1321.64	 2586.44
      9.3290	 2921.00	 2888.45	-1256.39	 2580.18
      9.3550	 2946.00	 2882.26	-1225.20	 2573.98
      9.3810	 2906.00	 2876.11	-1259.05	 2567.82
      9.4070	 2797.00	 2870.02	-1361.96	 2561.72
      9.4330	 2914.00	 2863.99	-1238.93	 2555.67
      9.4590	 2980.00	 2858.01	-1166.95	 2549.68
      9.4850	 2970.00	 2852.08	-1171.02	 2543.74
      9.5110	 2872.00	 2846.20	-1263.14	 2537.86
      9.5370	 2943.00	 2840.38	-1186.32	 2532.02
      9.5630	 2909.00	 2834.61	-1214.55	 2526.24
      9.5890	 2844.00	 2828.90	-1273.84	 2520.52
      9.6150	 2816.00	 2823.24	-1296.18	 2514.85
      9.6410	 2890.00	 2817.63	-1216.57	 2509.23
      9.6670	 2902.00	 2812.08	-1199.01	 2503.66
      9.6930	 2773.00	 2806.57	-1322.51	 2498.15
      9.7190	 2832.00	 2801.13	-1258.07	 2492.69
      9.7450	 2805.00	 2795.73	-1279.67	 2487.28
      9.7710	 2852.00	 2790.39	-1227.33	 2481.93
      9.7970	 2760.00	 2785.10	-1314.04	 2476.62
      9.8230	 2844.00	 2779.86	-1224.80	 2471.38
      9.8490	 2766.00	 2774.68	-1297.62	 2466.18
      9.8750	 2830.00	 2769.55	-1228.49	 2461.04
      9.9010	 2825.00	 2764.47	-1228.41	 2455.95
      9.9270	 2719.00	 2759.45	-1329.39	 2450.91
      9.9530	 2806.00	 2754.48	-1237.42	 2445.93
      9.9790	 2749.00	 2749.56	-1289.50	 2441.00
     10.0050	 2798.00	 2744.69	-1235.63	 2436.12
     10.0310	 2799.00	 2739.88	-1229.81	 2431.29
     10.0570	 2739.00	 2735.11	-1285.05	 2426.51
     10.0830	 2792.00	 2730.41	-1227.34	 2421.79
     10.1090	 2764.00	 2725.75	-1250.69	 2417.12
     10.1350	 2774.00	 2721.14	-1236.08	 2412.50
     10.1610	 2856.00	 2716.59	-1149.53	 2407.94
     10.1870	 2724.00	 2712.09	-1277.03	 2403.42
     10.2130	 2725.00	 2707.64	-1271.58	 2398.96
     10.2390	 2710.00	 2703.24	-1282.18	 2394.55
     10.2650	 2713.00	 2698.90	-1274.83	 2390.19
     10.2910	 2690.00	 2694.60	-1293.54	 2385.88
     10.3170	 2829.00	 2690.36	-1150.30	 2381.62
     10.3430	 2611.00	 2686.17	-1364.11	 2377.42
     10.3690	 2687.00	 2682.03	-1283.97	 2373.26
     10.3950	 2634.00	 2677.94	-1332.88	 2369.16
     10.4210	 2736.00	 2673.90	-1226.84	 2365.11
     10.4470	 2711.00	 2669.92	-1247.85	 2361.11
     10.4730	 2702.00	 2665.98	-1252.92	 2357.16
     10.4990	 2697.00	 2662.10	-1254.03	 2353.26
     10.5250	 2704.00	 2658.26	-1243.20	 2349.41
     10.5510	 2755.00	 2654.48	-1188.42	 2345.62
     10.5770	 2732.00	 2650.75	-1207.69	 2341.87
     10.6030	 2754.00	 2647.07	-1182.01	 2338.17
     10.6290	 2763.00	 2643.44	-1169.38	 2334.53
     10.6550	 2662.00	 2639.86	-1266.80	 2330.93
     10.6810	 2756.00	 2636.33	-1169.27	 2327.39
     10.7070	 2630.00	 2632.85	-1291.79	 2323.89
     10.7330	 2542.00	 2629.42	-1376.36	 2320.44
     10.7590	 2678.00	 2626.04	-1236.98	 2317.05
     10.7850	 2641.00	 2622.71	-1270.65	 2313.70
     10.8110	 2654.00	 2619.43	-1254.37	 2310.41
     10.8370	 2683.00	 2616.20	-1222.14	 2307.16
     10.8630	 2694.00	 2613.02	-1207.96	 2303.96
     10.8890	 2673.00	 2609.89	-1225.83	 2300.81
     10.9150	 2632.00	 2606.81	-1263.75	 2297.72
     10.9410	 2618.00	 2603.78	-1274.71	 2294.67
     10.9670	 2607.00	 2600.79	-1282.73	 2291.66
     10.9930	 2599.00	 2597.86	-1287.79	 2288.71
     11.0190	 2607.00	 2594.97	-1276.91	 2285.81
     11.0450	 2606.00	 2592.13	-1275.07	 2282.95
     11.0710	 2660.00	 2589.34	-1218.28	 2280.15
     11.0970	 2700.00	 2586.60	-1175.54	 2277.39
     11.1230	 2618.00	 2583.91	-1254.85	 2274.68
     11.1490	 2639.00	 2581.27	-1231.21	 2272.02
     11.1750	 2611.00	 2578.67	-1256.61	 2269.40
     11.2010	 2610.00	 2576.12	-1255.06	 2266.84
     11.2270	 2583.00	 2573.62	-1279.56	 2264.32
     11.2530	 2545.00	 2571.22	-1315.16	 2261.85
     11.2790	 2642.00	 2568.82	-1215.76	 2259.43
     11.3050	 2627.00	 2566.46	-1228.40	 2257.05
     11.3310	 2546.00	 2564.15	-1307.09	 2254.72
     11.3570	 2595.00	 2561.89	-1255.83	 2252.44
     11.3830	 2629.00	 2559.70	-1219.64	 2250.20
     11.4090	 2599.00	 2557.53	-1247.47	 2248.02
     11.4350	 2515.00	 2555.41	-1329.35	 2245.87
     11.4610	 2522.00	 2553.34	-1320.28	 2243.78
     11.4870	 2531.00	 2551.31	-1309.25	 2241.73
     11.5130	 2516.00	 2549.33	-1322.27	 2239.73
     11.5390	 2548.00	 2547.39	-1288.33	 2237.77
     11.5650	 2538.00	 2545.50	-1296.44	 2235.86
     11.5910	 2558.00	 2543.66	-1274.60	 2234.00
     11.6170	 2620.00	 2541.86	-1210.80	 2232.18
     11.6430	 2606.00	 2540.11	-1223.05	 2230.40
     11.6690	 2574.00	 2538.41	-1253.34	 2228.68
     11.6950	 2589.00	 2536.74	-1236.68	 2226.99
     11.7210	 2572.00	 2535.13	-1252.07	 2225.36
     11.7470	 2524.00	 2533.56	-1298.50	 2223.76
     11.7730	 2507.00	 2532.03	-1313.97	 2222.22
     11.7990	 2538.00	 2530.55	-1281.49	 2220.71
     11.8250	 2562.00	 2529.12	-1256.06	 2219.25
     11.8510	 2568.00	 2527.73	-1248.67	 2217.84
     11.8770	 2526.00	 2526.38	-1289.32	 2216.47
     11.9030	 2523.00	 2525.08	-1291.02	 2215.14
     11.9290	 2519.00	 2523.82	-1293.76	 2213.86
     11.9550	 2606.00	 2522.61	-1205.54	 2212.62
     11.9810	 2651.00	 2521.44	-1159.37	 2211.43
     12.0070	 2508.00	 2520.31	-1301.25	 2210.27
     12.0330	 2491.00	 2519.23	-1317.16	 2209.17
     12.0590	 2545.00	 2518.19	-1262.12	 2208.10
     12.0850	 2560.00	 2517.19	-1246.13	 2207.08
     12.1110	 2557.00	 2516.24	-1248.17	 2206.10
     12.1370	 2544.00	 2515.32	-1260.26	 2205.16
     12.1630	 2559.00	 2514.46	-1244.39	 2204.27
     12.1890	 2582.00	 2513.63	-1220.57	 2203.41
     12.2150	 2572.00	 2512.85	-1229.79	 2202.60
     12.2410	 2544.00	 2512.11	-1257.05	 2201.83
     12.2670	 2449.00	 2511.41	-1351.35	 2201.11
     12.2930	 2538.00	 2510.75	-1261.69	 2200.42
     12.3190	 2491.00	 2510.14	-1308.07	 2199.78
     12.3450	 2499.00	 2509.56	-1299.50	 2199.18
     12.3710	 2502.00	 2509.03	-1295.97	 2198.62
     12.3970	 2565.00	 2508.54	-1232.48	 2198.10
     12.4230	 2542.00	 2508.09	-1255.03	 2197.62
     12.4490	 2560.00	 2507.68	-1236.62	 2197.18
     12.4750	 2578.00	 2507.31	-1218.25	 2196.78
     12.5010	 2595.00	 2506.99	-1200.93	 2196.42
     12.5270	 2479.00	 2506.70	-1316.64	 2196.11
     12.5530	 2569.00	 2506.46	-1226.39	 2195.83
     12.5790	 2560.00	 2506.25	-1235.19	 2195.59
     12.6050	 2577.00	 2506.08	-1218.02	 2195.39
     12.6310	 2497.00	 2505.96	-1297.89	 2195.23
     12.6570	 2545.00	 2505.87	-1249.81	 2195.11
     12.6830	 2559.00	 2505.82	-1235.76	 2195.03
     12.7090	 2478.00	 2505.81	-1316.75	 2194.99
     12.7350	 2485.00	 2505.84	-1309.78	 2194.99
     12.7610	 2472.00	 2505.91	-1322.85	 2195.02
     12.7870	 2532.00	 2506.02	-1262.96	 2195.10
     12.8130	 2540.00	 2506.17	-1255.11	 2195.21
     12.8390	 2501.00	 2506.36	-1294.29	 2195.36
     12.8650	 2441.00	 2506.58	-1354.52	 2195.54
     12.8910	 2473.00	 2506.84	-1322.78	 2195.77
     12.9170	 2495.00	 2507.14	-1301.08	 2196.03
     12.9430	 2536.00	 2507.48	-1260.42	 2196.33
     12.9690	 2585.00	 2507.86	-1211.79	 2196.67
     12.9950	 2476.00	 2508.27	-1321.21	 2197.04
     13.0210	 2529.00	 2508.72	-1268.66	 2197.45
     13.0470	 2536.00	 2509.20	-1262.14	 2197.90
     13.0730	 2494.00	 2509.73	-1304.67	 2198.38
     13.0990	 2522.00	 2510.29	-1277.23	 2198.90
     13.1250	 2535.00	 2510.89	-1264.82	 2199.46
     13.1510	 2558.00	 2511.52	-1242.46	 2200.05
     13.1770	 2456.00	 2512.19	-1345.13	 2200.68
     13.2030	 2555.00	 2512.89	-1246.83	 2201.34
     13.2290	 2524.00	 2513.64	-1278.57	 2202.04
     13.2550	 2508.00	 2514.41	-1295.35	 2202.77
     13.2810	 2526.00	 2515.22	-1278.16	 2203.54
     13.3070	 2531.00	 2516.08	-1274.02	 2204.34
     13.3330	 2492.00	 2516.96	-1313.90	 2205.18
     13.3590	 2564.00	 2517.88	-1242.82	 2206.05
     13.3850	 2459.00	 2518.83	-1348.77	 2206.96
     13.4110	 2436.00	 2519.82	-1372.76	 2207.89
     13.4370	 2462.00	 2520.84	-1347.78	 2208.87
     13.4630	 2505.00	 2521.90	-1305.84	 2209.87
     13.4890	 2511.00	 2522.99	-1300.93	 2210.91
     13.5150	 2527.00	 2524.11	-1286.05	 2211.99
     13.5410	 2580.00	 2525.27	-1234.21	 2213.09
     13.5670	 2564.00	 2526.46	-1251.40	 2214.23
