 AH11    CELL:    8.39467   8.39467   8.39467   90.0000   90.0000   90.0000   SPGR: F d -3 m               TEMP:      0.00
  1   2874     1.54056     1.54439     0.00000     0.00000     0.00000    0
   94    0    0
 2Theta	Yobs	Ycal	Yobs-Ycal	Backg	Bragg	Posr	(hkl)	K
      5.1690	 4544.00	 4568.74	-1327.31	 4255.73	     18.2896	       0	(  1  1  1)	  0  1
      5.1950	 4535.00	 4553.72	-1321.28	 4240.70	     18.3355	       0	(  1  1  1)	  0  2
      5.2210	 4508.00	 4538.75	-1333.32	 4225.73	     30.0846	       0	(  2  2  0)	  0  1
      5.2470	 4492.00	 4523.85	-1334.41	 4210.82	     30.1612	       0	(  2  2  0)	  0  2
      5.2730	 4496.00	 4509.01	-1315.57	 4195.98	     35.4356	       0	(  3  1  1)	  0  1
      5.2990	 4491.00	 4494.23	-1305.79	 4181.19	     35.5265	       0	(  3  1  1)	  0  2
      5.3250	 4450.00	 4479.51	-1332.07	 4166.47	     37.0672	       0	(  2  2  2)	  0  1
      5.3510	 4518.00	 4464.85	-1249.41	 4151.81	     37.1627	       0	(  2  2  2)	  0  2
      5.3770	 4381.00	 4450.25	-1371.81	 4137.21	     43.0657	       0	(  4  0  0)	  0  1
      5.4030	 4371.00	 4435.71	-1367.27	 4122.66	     43.1780	       0	(  4  0  0)	  0  2
      5.4290	 4428.00	 4421.23	-1295.80	 4108.18	     47.1521	       0	(  3  3  1)	  0  1
      5.4550	 4449.00	 4406.82	-1260.38	 4093.76	     47.2764	       0	(  3  3  1)	  0  2
      5.4810	 4453.00	 4392.46	-1242.02	 4079.40	     53.4262	       0	(  4  2  2)	  0  1
      5.5070	 4321.00	 4378.16	-1359.72	 4065.10	     53.5695	       0	(  4  2  2)	  0  2
      5.5330	 4249.00	 4363.92	-1417.49	 4050.85	     56.9521	       0	(  3  3  3)	  0  1
      5.5590	 4415.00	 4349.74	-1237.31	 4036.67	     56.9521	       0	(  5  1  1)	  0  1
      5.5850	 4342.00	 4335.62	-1296.19	 4022.55	     57.1066	       0	(  3  3  3)	  0  2
      5.6110	 4361.00	 4321.56	-1263.13	 4008.48	     57.1066	       0	(  5  1  1)	  0  2
      5.6370	 4382.00	 4307.56	-1228.13	 3994.48	     62.5391	       0	(  4  4  0)	  0  1
      5.6630	 4286.00	 4293.62	-1310.18	 3980.53	     62.7121	       0	(  4  4  0)	  0  2
      5.6890	 4327.00	 4279.74	-1255.30	 3966.65	     65.7559	       0	(  5  3  1)	  0  1
      5.7150	 4248.00	 4265.91	-1320.48	 3952.82	     65.9400	       0	(  5  3  1)	  0  2
      5.7410	 4235.00	 4252.15	-1319.71	 3939.05	     66.8097	       0	(  4  4  2)	  0  1
      5.7670	 4244.00	 4238.44	-1297.00	 3925.34	     66.9976	       0	(  4  4  2)	  0  2
      5.7930	 4348.00	 4224.79	-1179.36	 3911.69	     70.9478	       0	(  6  2  0)	  0  1
      5.8190	 4252.00	 4211.20	-1261.77	 3898.09	     71.1508	       0	(  6  2  0)	  0  2
      5.8450	 4266.00	 4197.67	-1234.23	 3884.56	     73.9837	       0	(  5  3  3)	  0  1
      5.8710	 4134.00	 4184.19	-1352.76	 3871.08	     74.1983	       0	(  5  3  3)	  0  2
      5.8970	 4204.00	 4170.78	-1269.34	 3857.66	     74.9850	       0	(  6  2  2)	  0  1
      5.9230	 4192.00	 4157.42	-1267.99	 3844.30	     75.2036	       0	(  6  2  2)	  0  2
      5.9490	 4247.00	 4144.12	-1199.68	 3830.99	     78.9471	       0	(  4  4  4)	  0  1
      5.9750	 4253.00	 4130.88	-1180.44	 3817.75	     79.1818	       0	(  4  4  4)	  0  2
      6.0010	 4176.00	 4117.69	-1244.26	 3804.56	     81.8829	       0	(  7  1  1)	  0  1
      6.0270	 4153.00	 4104.57	-1254.13	 3791.43	     81.8829	       0	(  5  5  1)	  0  1
      6.0530	 4093.00	 4091.50	-1301.06	 3778.35	     82.1301	       0	(  5  5  1)	  0  2
      6.0790	 4095.00	 4078.48	-1286.05	 3765.34	     82.1301	       0	(  7  1  1)	  0  2
      6.1050	 4043.00	 4065.53	-1325.09	 3752.38	     86.7323	       0	(  6  4  2)	  0  1
      6.1310	 4060.00	 4052.63	-1295.20	 3739.48	     87.0016	       0	(  6  4  2)	  0  2
      6.1570	 4060.00	 4039.79	-1282.36	 3726.63	     89.6285	       0	(  5  5  3)	  0  1
      6.1830	 4059.00	 4027.01	-1270.57	 3713.84	     89.6285	       0	(  7  3  1)	  0  1
      6.2090	 4027.00	 4014.28	-1289.85	 3701.11	     89.9118	       0	(  5  5  3)	  0  2
      6.2350	 3955.00	 4001.61	-1349.18	 3688.44	     89.9118	       0	(  7  3  1)	  0  2
      6.2610	 4026.00	 3989.00	-1265.56	 3675.82	     94.4571	       0	(  8  0  0)	  0  1
      6.2870	 4028.00	 3976.44	-1251.01	 3663.26	     94.7654	       0	(  8  0  0)	  0  2
      6.3130	 3965.00	 3963.94	-1301.51	 3650.76	     97.3674	       0	(  7  3  3)	  0  1
      6.3390	 4008.00	 3951.50	-1246.06	 3638.31	     97.6918	       0	(  7  3  3)	  0  2
      6.3650	 4043.00	 3939.11	-1198.68	 3625.92	     98.3414	       0	(  6  4  4)	  0  1
      6.3910	 4013.00	 3926.78	-1216.35	 3613.59	     98.6714	       0	(  6  4  4)	  0  2
      6.4170	 4005.00	 3914.51	-1212.08	 3601.31	    102.2647	       0	(  6  6  0)	  0  1
      6.4430	 3977.00	 3902.29	-1227.86	 3589.09	    102.2647	       0	(  8  2  2)	  0  1
      6.4690	 3954.00	 3890.14	-1238.70	 3576.93	    102.6186	       0	(  6  6  0)	  0  2
      6.4950	 3969.00	 3878.03	-1211.60	 3564.82	    102.6186	       0	(  8  2  2)	  0  2
      6.5210	 3902.00	 3865.98	-1266.55	 3552.76	    105.2449	       0	(  5  5  5)	  0  1
      6.5470	 3868.00	 3853.99	-1288.56	 3540.77	    105.2449	       0	(  7  5  1)	  0  1
      6.5730	 3854.00	 3842.05	-1290.62	 3528.83	    105.6184	       0	(  5  5  5)	  0  2
      6.5990	 3874.00	 3830.18	-1258.74	 3516.94	    105.6184	       0	(  7  5  1)	  0  2
      6.6250	 3885.00	 3818.35	-1235.92	 3505.12	    106.2474	       0	(  6  6  2)	  0  1
      6.6510	 3852.00	 3806.59	-1257.15	 3493.34	    106.6278	       0	(  6  6  2)	  0  2
      6.6770	 3874.00	 3794.88	-1223.44	 3481.63	    110.3126	       0	(  8  4  0)	  0  1
      6.7030	 3839.00	 3783.22	-1246.78	 3469.97	    110.7227	       0	(  8  4  0)	  0  2
      6.7290	 3689.00	 3771.62	-1385.18	 3458.36	    113.4320	       0	(  7  5  3)	  0  1
      6.7550	 3676.00	 3760.08	-1386.64	 3446.82	    113.4320	       0	(  9  1  1)	  0  1
      6.7810	 3755.00	 3748.59	-1296.15	 3435.32	    113.8669	       0	(  7  5  3)	  0  2
      6.8070	 3774.00	 3737.16	-1265.72	 3423.89	    113.8669	       0	(  9  1  1)	  0  2
      6.8330	 3862.00	 3725.78	-1166.34	 3412.51	    114.4878	       0	(  8  4  2)	  0  1
      6.8590	 3745.00	 3714.46	-1272.02	 3401.18	    114.9317	       0	(  8  4  2)	  0  2
      6.8850	 3720.00	 3703.19	-1285.76	 3389.91	    118.8067	       0	(  6  6  4)	  0  1
      6.9110	 3738.00	 3691.98	-1256.55	 3378.70	    119.2899	       0	(  6  6  4)	  0  2
      6.9370	 3707.00	 3680.83	-1276.39	 3367.54	    122.1660	       0	(  9  3  1)	  0  1
      6.9630	 3608.00	 3669.73	-1364.29	 3356.43	    122.6835	       0	(  9  3  1)	  0  2
      6.9890	 3704.00	 3658.69	-1257.25	 3345.39	    128.0661	       0	(  8  4  4)	  0  1
      7.0150	 3678.00	 3647.70	-1272.26	 3334.39	    128.6539	       0	(  8  4  4)	  0  2
      7.0410	 3631.00	 3636.77	-1308.33	 3323.46	    131.8427	       0	(  7  5  5)	  0  1
      7.0670	 3556.00	 3625.89	-1372.45	 3312.57	    131.8427	       0	(  7  7  1)	  0  1
      7.0930	 3674.00	 3615.07	-1243.63	 3301.75	    131.8427	       0	(  9  3  3)	  0  1
      7.1190	 3541.00	 3604.30	-1365.87	 3290.98	    132.4839	       0	(  7  5  5)	  0  2
      7.1450	 3470.00	 3593.59	-1426.16	 3280.26	    132.4839	       0	(  7  7  1)	  0  2
      7.1710	 3531.00	 3582.93	-1354.50	 3269.60	    132.4839	       0	(  9  3  3)	  0  2
      7.1970	 3407.00	 3572.33	-1467.90	 3259.00	    138.7018	       0	(  8  6  2)	  0  1
      7.2230	 3550.00	 3561.79	-1314.35	 3248.44	    138.7018	       0	( 10  2  0)	  0  1
      7.2490	 3447.00	 3551.30	-1406.86	 3237.95	    139.4641	       0	(  8  6  2)	  0  2
      7.2750	 3396.00	 3540.86	-1447.43	 3227.51	    139.4641	       0	( 10  2  0)	  0  2
      7.3010	 3544.00	 3530.48	-1289.05	 3217.12	    143.3025	       0	(  7  7  3)	  0  1
      7.3270	 3378.00	 3520.16	-1444.72	 3206.79	    143.3025	       0	(  9  5  1)	  0  1
      7.3530	 3478.00	 3509.89	-1334.45	 3196.52	    144.1710	       0	(  7  7  3)	  0  2
      7.3790	 3492.00	 3499.67	-1310.24	 3186.30	    144.1710	       0	(  9  5  1)	  0  2
      7.4050	 3424.00	 3489.51	-1368.08	 3176.14	    144.9490	       0	(  6  6  6)	  0  1
      7.4310	 3392.00	 3479.41	-1389.97	 3166.03	    144.9490	       0	( 10  2  2)	  0  1
      7.4570	 3504.00	 3469.36	-1267.93	 3155.97	    145.8622	       0	(  6  6  6)	  0  2
      7.4830	 3397.00	 3459.36	-1364.93	 3145.97	    145.8622	       0	( 10  2  2)	  0  2
      7.5090	 3405.00	 3449.43	-1346.99	 3136.03	    159.4745	       0	(  9  5  3)	  0  1
      7.5350	 3480.00	 3439.54	-1262.11	 3126.14	    161.1118	       0	(  9  5  3)	  0  2
      7.5610	 3445.00	 3429.71	-1287.28	 3116.30	    162.4313	       0	(  8  6  4)	  0  1
      7.5870	 3396.00	 3419.94	-1326.50	 3106.52	    164.3814	       0	(  8  6  4)	  0  2
      7.6130	 3391.00	 3410.22	-1321.78	 3096.80
      7.6390	 3250.00	 3400.55	-1453.12	 3087.12
      7.6650	 3328.00	 3390.94	-1365.50	 3077.51
      7.6910	 3308.00	 3381.38	-1375.95	 3067.95
      7.7170	 3434.00	 3371.88	-1240.45	 3058.44
      7.7430	 3423.00	 3362.44	-1242.00	 3048.99
      7.7690	 3309.00	 3353.05	-1346.61	 3039.59
      7.7950	 3337.00	 3343.71	-1309.27	 3030.25
      7.8210	 3223.00	 3334.43	-1413.99	 3020.96
      7.8470	 3259.00	 3325.20	-1368.76	 3011.73
      7.8730	 3225.00	 3316.03	-1393.59	 3002.55
      7.8990	 3211.00	 3306.91	-1398.47	 2993.43
      7.9250	 3217.00	 3297.84	-1383.41	 2984.36
      7.9510	 3274.00	 3288.84	-1317.40	 2975.34
      7.9770	 3248.00	 3279.88	-1334.45	 2966.38
      8.0030	 3330.00	 3270.98	-1243.54	 2957.48
      8.0290	 3220.00	 3262.14	-1344.70	 2948.63
      8.0550	 3183.00	 3253.35	-1372.91	 2939.83
      8.0810	 3133.00	 3244.61	-1414.17	 2931.09
      8.1070	 3136.00	 3235.93	-1402.49	 2922.40
      8.1330	 3147.00	 3227.30	-1382.86	 2913.77
      8.1590	 3173.00	 3218.73	-1348.29	 2905.19
      8.1850	 3091.00	 3210.21	-1421.77	 2896.66
      8.2110	 3078.00	 3201.74	-1426.31	 2888.19
      8.2370	 3070.00	 3193.33	-1425.90	 2879.78
      8.2630	 3097.00	 3184.98	-1390.54	 2871.41
      8.2890	 3126.00	 3176.67	-1353.24	 2863.11
      8.3150	 3110.00	 3168.43	-1360.99	 2854.85
      8.3410	 3111.00	 3160.23	-1351.80	 2846.65
      8.3670	 3108.00	 3152.10	-1346.66	 2838.51
      8.3930	 3159.00	 3144.01	-1287.58	 2830.42
      8.4190	 3070.00	 3135.98	-1368.55	 2822.38
      8.4450	 3047.00	 3128.00	-1383.57	 2814.40
      8.4710	 3017.00	 3120.08	-1405.65	 2806.47
      8.4970	 3096.00	 3112.22	-1318.78	 2798.60
      8.5230	 3116.00	 3104.40	-1290.96	 2790.78
      8.5490	 3093.00	 3096.67	-1306.23	 2783.01
      8.5750	 3094.00	 3088.96	-1297.52	 2775.30
      8.6010	 3000.00	 3081.31	-1383.87	 2767.64
      8.6270	 2931.00	 3073.71	-1445.27	 2760.03
      8.6530	 2986.00	 3066.18	-1382.74	 2752.48
      8.6790	 3015.00	 3058.69	-1346.25	 2744.99
      8.7050	 2999.00	 3051.25	-1354.82	 2737.54
      8.7310	 3032.00	 3043.87	-1314.43	 2730.16
      8.7570	 3037.00	 3036.54	-1302.10	 2722.82
      8.7830	 3051.00	 3029.26	-1280.83	 2715.54
      8.8090	 3015.00	 3022.04	-1309.61	 2708.31
      8.8350	 2987.00	 3014.88	-1330.44	 2701.14
      8.8610	 3041.00	 3007.76	-1269.33	 2694.02
      8.8870	 2996.00	 3000.70	-1307.27	 2686.95
      8.9130	 3012.00	 2993.70	-1284.26	 2679.94
      8.9390	 2993.00	 2986.74	-1296.31	 2672.97
      8.9650	 2924.00	 2979.84	-1358.41	 2666.07
      8.9910	 2975.00	 2973.00	-1300.56	 2659.21
      9.0170	 3005.00	 2966.20	-1263.77	 2652.41
      9.0430	 2968.00	 2959.46	-1294.03	 2645.67
      9.0690	 2910.00	 2952.78	-1345.34	 2638.98
      9.0950	 2887.00	 2946.15	-1361.71	 2632.34
      9.1210	 2870.00	 2939.57	-1372.13	 2625.75
      9.1470	 2928.00	 2933.04	-1307.61	 2619.22
      9.1730	 2943.00	 2926.57	-1286.13	 2612.74
      9.1990	 2902.00	 2920.15	-1320.71	 2606.31
      9.2250	 2975.00	 2913.78	-1241.35	 2599.93
      9.2510	 2993.00	 2907.47	-1217.03	 2593.61
      9.2770	 2905.00	 2901.21	-1298.77	 2587.35
      9.3030	 2862.00	 2895.00	-1335.57	 2581.13
      9.3290	 2921.00	 2888.85	-1270.41	 2574.97
      9.3550	 2946.00	 2882.75	-1239.31	 2568.86
      9.3810	 2906.00	 2876.70	-1273.26	 2562.80
      9.4070	 2797.00	 2870.70	-1376.26	 2556.80
      9.4330	 2914.00	 2864.76	-1253.32	 2550.85
      9.4590	 2980.00	 2858.87	-1181.43	 2544.95
      9.4850	 2970.00	 2853.03	-1185.59	 2539.10
      9.5110	 2872.00	 2847.24	-1277.81	 2533.31
      9.5370	 2943.00	 2841.51	-1201.08	 2527.57
      9.5630	 2909.00	 2835.83	-1229.40	 2521.88
      9.5890	 2844.00	 2830.20	-1288.77	 2516.25
      9.6150	 2816.00	 2824.63	-1311.19	 2510.66
      9.6410	 2890.00	 2819.10	-1231.67	 2505.13
      9.6670	 2902.00	 2813.63	-1214.20	 2499.65
      9.6930	 2773.00	 2808.21	-1337.78	 2494.23
      9.7190	 2832.00	 2802.85	-1273.41	 2488.85
      9.7450	 2805.00	 2797.53	-1295.10	 2483.53
      9.7710	 2852.00	 2792.27	-1242.84	 2478.26
      9.7970	 2760.00	 2787.06	-1329.62	 2473.04
      9.8230	 2844.00	 2781.90	-1240.47	 2467.87
      9.8490	 2766.00	 2776.79	-1313.36	 2462.76
      9.8750	 2830.00	 2771.74	-1244.30	 2457.69
      9.9010	 2825.00	 2766.74	-1244.30	 2452.68
      9.9270	 2719.00	 2761.79	-1345.35	 2447.72
      9.9530	 2806.00	 2756.88	-1253.45	 2442.81
      9.9790	 2749.00	 2752.04	-1305.60	 2437.95
     10.0050	 2798.00	 2747.24	-1251.80	 2433.15
     10.0310	 2799.00	 2742.49	-1246.06	 2428.39
     10.0570	 2739.00	 2737.80	-1301.36	 2423.69
     10.0830	 2792.00	 2733.16	-1243.72	 2419.04
     10.1090	 2764.00	 2728.56	-1267.13	 2414.43
     10.1350	 2774.00	 2724.02	-1252.59	 2409.88
     10.1610	 2856.00	 2719.53	-1166.10	 2405.39
     10.1870	 2724.00	 2715.09	-1293.66	 2400.94
     10.2130	 2725.00	 2710.70	-1288.27	 2396.54
     10.2390	 2710.00	 2706.37	-1298.93	 2392.19
     10.2650	 2713.00	 2702.08	-1291.65	 2387.90
     10.2910	 2690.00	 2697.84	-1310.41	 2383.65
     10.3170	 2829.00	 2693.66	-1167.22	 2379.45
     10.3430	 2611.00	 2689.52	-1381.09	 2375.31
     10.3690	 2687.00	 2685.44	-1301.00	 2371.21
     10.3950	 2634.00	 2681.40	-1349.97	 2367.17
     10.4210	 2736.00	 2677.42	-1243.98	 2363.17
     10.4470	 2711.00	 2673.48	-1265.05	 2359.23
     10.4730	 2702.00	 2669.60	-1270.17	 2355.34
     10.4990	 2697.00	 2665.77	-1271.33	 2351.49
     10.5250	 2704.00	 2661.98	-1260.55	 2347.70
     10.5510	 2755.00	 2658.25	-1205.81	 2343.95
     10.5770	 2732.00	 2654.56	-1225.13	 2340.26
     10.6030	 2754.00	 2650.93	-1199.49	 2336.61
     10.6290	 2763.00	 2647.34	-1186.91	 2333.01
     10.6550	 2662.00	 2643.80	-1284.37	 2329.47
     10.6810	 2756.00	 2640.32	-1186.88	 2325.97
     10.7070	 2630.00	 2636.88	-1309.44	 2322.52
     10.7330	 2542.00	 2633.49	-1394.06	 2319.12
     10.7590	 2678.00	 2630.15	-1254.72	 2315.77
     10.7850	 2641.00	 2626.86	-1288.42	 2312.47
     10.8110	 2654.00	 2623.62	-1272.18	 2309.21
     10.8370	 2683.00	 2620.42	-1239.99	 2306.01
     10.8630	 2694.00	 2617.28	-1225.84	 2302.85
     10.8890	 2673.00	 2614.18	-1243.75	 2299.74
     10.9150	 2632.00	 2611.14	-1281.70	 2296.68
     10.9410	 2618.00	 2608.14	-1292.70	 2293.67
     10.9670	 2607.00	 2605.18	-1300.75	 2290.71
     10.9930	 2599.00	 2602.28	-1305.85	 2287.80
     11.0190	 2607.00	 2599.43	-1294.99	 2284.93
     11.0450	 2606.00	 2596.62	-1293.18	 2282.11
     11.0710	 2660.00	 2593.86	-1236.42	 2279.34
     11.0970	 2700.00	 2591.15	-1193.71	 2276.61
     11.1230	 2618.00	 2588.48	-1273.05	 2273.94
     11.1490	 2639.00	 2585.87	-1249.43	 2271.31
     11.1750	 2611.00	 2583.30	-1274.86	 2268.73
     11.2010	 2610.00	 2580.77	-1273.34	 2266.19
     11.2270	 2583.00	 2578.30	-1297.86	 2263.70
     11.2530	 2545.00	 2575.87	-1333.44	 2261.26
     11.2790	 2642.00	 2573.49	-1234.06	 2258.87
     11.3050	 2627.00	 2571.16	-1246.72	 2256.52
     11.3310	 2546.00	 2568.87	-1325.43	 2254.22
     11.3570	 2595.00	 2566.71	-1274.27	 2251.96
     11.3830	 2629.00	 2564.51	-1238.08	 2249.76
     11.4090	 2599.00	 2562.36	-1265.93	 2247.59
     11.4350	 2515.00	 2560.26	-1347.83	 2245.48
     11.4610	 2522.00	 2558.20	-1338.77	 2243.41
     11.4870	 2531.00	 2556.23	-1327.80	 2241.39
     11.5130	 2516.00	 2554.27	-1340.83	 2239.41
     11.5390	 2548.00	 2552.35	-1306.91	 2237.47
     11.5650	 2538.00	 2550.48	-1315.04	 2235.59
     11.5910	 2558.00	 2548.65	-1293.21	 2233.74
     11.6170	 2620.00	 2546.87	-1229.43	 2231.95
     11.6430	 2606.00	 2545.13	-1241.70	 2230.19
     11.6690	 2574.00	 2543.44	-1272.00	 2228.49
     11.6950	 2589.00	 2541.79	-1255.36	 2226.83
     11.7210	 2572.00	 2540.19	-1270.75	 2225.21
     11.7470	 2524.00	 2538.63	-1317.20	 2223.64
     11.7730	 2507.00	 2537.12	-1332.68	 2222.11
     11.7990	 2538.00	 2535.65	-1300.21	 2220.62
     11.8250	 2562.00	 2534.22	-1274.79	 2219.18
     11.8510	 2568.00	 2532.84	-1267.41	 2217.79
     11.8770	 2526.00	 2531.51	-1308.07	 2216.43
     11.9030	 2523.00	 2530.22	-1309.78	 2215.12
     11.9290	 2519.00	 2528.97	-1312.53	 2213.86
     11.9550	 2606.00	 2527.76	-1224.33	 2212.64
     11.9810	 2651.00	 2526.60	-1178.16	 2211.46
     12.0070	 2508.00	 2525.48	-1320.05	 2210.32
     12.0330	 2491.00	 2524.41	-1335.97	 2209.23
     12.0590	 2545.00	 2523.37	-1280.94	 2208.18
     12.0850	 2560.00	 2522.38	-1264.95	 2207.18
     12.1110	 2557.00	 2521.44	-1267.00	 2206.21
     12.1370	 2544.00	 2520.53	-1279.10	 2205.29
     12.1630	 2559.00	 2519.67	-1263.24	 2204.41
     12.1890	 2582.00	 2518.85	-1239.42	 2203.57
     12.2150	 2572.00	 2518.07	-1248.64	 2202.78
     12.2410	 2544.00	 2517.34	-1275.90	 2202.02
     12.2670	 2449.00	 2516.65	-1370.21	 2201.31
     12.2930	 2538.00	 2515.99	-1280.56	 2200.64
     12.3190	 2491.00	 2515.38	-1326.95	 2200.01
     12.3450	 2499.00	 2514.82	-1318.38	 2199.42
     12.3710	 2502.00	 2514.29	-1314.85	 2198.88
     12.3970	 2565.00	 2513.80	-1251.37	 2198.37
     12.4230	 2542.00	 2513.36	-1273.92	 2197.91
     12.4490	 2560.00	 2512.95	-1255.52	 2197.48
     12.4750	 2578.00	 2512.59	-1237.15	 2197.10
     12.5010	 2595.00	 2512.26	-1219.83	 2196.75
     12.5270	 2479.00	 2511.98	-1335.55	 2196.45
     12.5530	 2569.00	 2511.74	-1245.30	 2196.19
     12.5790	 2560.00	 2511.54	-1254.10	 2195.96
     12.6050	 2577.00	 2511.37	-1236.94	 2195.78
     12.6310	 2497.00	 2511.25	-1316.81	 2195.63
     12.6570	 2545.00	 2511.16	-1268.73	 2195.53
     12.6830	 2559.00	 2511.12	-1254.69	 2195.46
     12.7090	 2478.00	 2511.12	-1335.68	 2195.43
     12.7350	 2485.00	 2511.15	-1328.71	 2195.45
     12.7610	 2472.00	 2511.22	-1341.79	 2195.50
     12.7870	 2532.00	 2511.33	-1281.90	 2195.59
     12.8130	 2540.00	 2511.48	-1274.05	 2195.71
     12.8390	 2501.00	 2511.67	-1313.24	 2195.88
     12.8650	 2441.00	 2511.90	-1373.46	 2196.08
     12.8910	 2473.00	 2512.16	-1341.73	 2196.32
     12.9170	 2495.00	 2512.47	-1320.03	 2196.60
     12.9430	 2536.00	 2512.81	-1279.37	 2196.92
     12.9690	 2585.00	 2513.19	-1230.75	 2197.27
     12.9950	 2476.00	 2513.60	-1340.17	 2197.66
     13.0210	 2529.00	 2514.06	-1287.62	 2198.09
     13.0470	 2536.00	 2514.55	-1281.11	 2198.55
     13.0730	 2494.00	 2515.07	-1323.64	 2199.05
     13.0990	 2522.00	 2515.64	-1296.20	 2199.59
     13.1250	 2535.00	 2516.24	-1283.80	 2200.17
     13.1510	 2558.00	 2516.87	-1261.44	 2200.77
     13.1770	 2456.00	 2517.55	-1364.11	 2201.42
     13.2030	 2555.00	 2518.26	-1265.82	 2202.10
     13.2290	 2524.00	 2519.00	-1297.57	 2202.82
     13.2550	 2508.00	 2519.78	-1314.35	 2203.57
     13.2810	 2526.00	 2520.60	-1297.16	 2204.36
     13.3070	 2531.00	 2521.45	-1293.02	 2205.18
     13.3330	 2492.00	 2522.34	-1332.90	 2206.04
     13.3590	 2564.00	 2523.26	-1261.83	 2206.93
     13.3850	 2459.00	 2524.22	-1367.78	 2207.86
     13.4110	 2436.00	 2525.21	-1391.78	 2208.82
     13.4370	 2462.00	 2526.24	-1366.80	 2209.82
     13.4630	 2505.00	 2527.30	-1324.86	 2210.84
     13.4890	 2511.00	 2528.39	-1319.96	 2211.91
     13.5150	 2527.00	 2529.52	-1305.09	 2213.00
     13.5410	 2580.00	 2530.69	-1253.25	 2214.13
     13.5670	 2564.00	 2531.88	-1270.45	 2215.30
