 AH10    CELL:    8.39430   8.39430   8.39430   90.0000   90.0000   90.0000   SPGR: F d -3 m               TEMP:      0.00
  1   2874     1.54056     1.54439    -0.17573    -0.00130     0.00000    0
   94    0    0
 2Theta	Yobs	Ycal	Yobs-Ycal	Backg	Bragg	Posr	(hkl)	K
      5.1690	 5101.00	 5432.06	-1870.27	 4988.15	     18.1132	       0	(  1  1  1)	  0  1
      5.1950	 5130.00	 5402.42	-1811.64	 4958.51	     18.1591	       0	(  1  1  1)	  0  2
      5.2210	 5076.00	 5373.17	-1836.39	 4929.26	     29.9086	       0	(  2  2  0)	  0  1
      5.2470	 5107.00	 5344.30	-1776.51	 4900.38	     29.9852	       0	(  2  2  0)	  0  2
      5.2730	 5104.00	 5315.81	-1751.02	 4871.87	     35.2598	       0	(  3  1  1)	  0  1
      5.2990	 5082.00	 5287.68	-1744.89	 4843.73	     35.3507	       0	(  3  1  1)	  0  2
      5.3250	 5086.00	 5259.91	-1713.12	 4815.96	     36.8915	       0	(  2  2  2)	  0  1
      5.3510	 5042.00	 5232.50	-1729.72	 4788.55	     36.9870	       0	(  2  2  2)	  0  2
      5.3770	 4999.00	 5205.46	-1745.67	 4761.49	     42.8901	       0	(  4  0  0)	  0  1
      5.4030	 5016.00	 5178.76	-1701.97	 4734.78	     43.0025	       0	(  4  0  0)	  0  2
      5.4290	 4929.00	 5152.40	-1762.62	 4708.42	     46.9768	       0	(  3  3  1)	  0  1
      5.4550	 5026.00	 5126.40	-1639.61	 4682.41	     47.1011	       0	(  3  3  1)	  0  2
      5.4810	 4961.00	 5100.72	-1678.94	 4656.73	     53.2512	       0	(  4  2  2)	  0  1
      5.5070	 4991.00	 5075.39	-1623.60	 4631.38	     53.3945	       0	(  4  2  2)	  0  2
      5.5330	 5058.00	 5050.38	-1531.59	 4606.37	     56.7772	       0	(  3  3  3)	  0  1
      5.5590	 4994.00	 5025.70	-1570.91	 4581.68	     56.7772	       0	(  5  1  1)	  0  1
      5.5850	 4969.00	 5001.34	-1571.55	 4557.31	     56.9317	       0	(  3  3  3)	  0  2
      5.6110	 4815.00	 4977.30	-1701.51	 4533.26	     56.9317	       0	(  5  1  1)	  0  2
      5.6370	 4840.00	 4953.57	-1652.78	 4509.53	     62.3645	       0	(  4  4  0)	  0  1
      5.6630	 4818.00	 4930.16	-1651.37	 4486.11	     62.5375	       0	(  4  4  0)	  0  2
      5.6890	 4781.00	 4907.05	-1665.26	 4462.99	     65.5814	       0	(  5  3  1)	  0  1
      5.7150	 4794.00	 4884.24	-1629.45	 4440.17	     65.7655	       0	(  5  3  1)	  0  2
      5.7410	 4759.00	 4861.73	-1641.94	 4417.66	     66.6353	       0	(  4  4  2)	  0  1
      5.7670	 4820.00	 4839.51	-1558.73	 4395.43	     66.8232	       0	(  4  4  2)	  0  2
      5.7930	 4767.00	 4817.59	-1589.81	 4373.50	     70.7736	       0	(  6  2  0)	  0  1
      5.8190	 4663.00	 4795.96	-1672.17	 4351.86	     70.9767	       0	(  6  2  0)	  0  2
      5.8450	 4645.00	 4774.61	-1668.82	 4330.50	     73.8096	       0	(  5  3  3)	  0  1
      5.8710	 4754.00	 4753.54	-1538.75	 4309.42	     74.0243	       0	(  5  3  3)	  0  2
      5.8970	 4897.00	 4732.74	-1374.95	 4288.62	     74.8110	       0	(  6  2  2)	  0  1
      5.9230	 4765.00	 4712.22	-1486.43	 4268.09	     75.0296	       0	(  6  2  2)	  0  2
      5.9490	 4609.00	 4691.97	-1622.18	 4247.83	     78.7734	       0	(  4  4  4)	  0  1
      5.9750	 4642.00	 4671.99	-1569.20	 4227.84	     79.0081	       0	(  4  4  4)	  0  2
      6.0010	 4671.00	 4652.26	-1520.48	 4208.11	     81.7093	       0	(  7  1  1)	  0  1
      6.0270	 4677.00	 4632.80	-1495.01	 4188.64	     81.7093	       0	(  5  5  1)	  0  1
      6.0530	 4696.00	 4613.60	-1456.81	 4169.43	     81.9566	       0	(  7  1  1)	  0  2
      6.0790	 4632.00	 4594.64	-1501.86	 4150.47	     81.9566	       0	(  5  5  1)	  0  2
      6.1050	 4616.00	 4575.94	-1499.15	 4131.76	     86.5591	       0	(  6  4  2)	  0  1
      6.1310	 4566.00	 4557.48	-1530.70	 4113.29	     86.8283	       0	(  6  4  2)	  0  2
      6.1570	 4541.00	 4539.27	-1537.48	 4095.07	     89.4555	       0	(  7  3  1)	  0  1
      6.1830	 4542.00	 4521.30	-1518.51	 4077.09	     89.4555	       0	(  5  5  3)	  0  1
      6.2090	 4546.00	 4503.56	-1496.77	 4059.34	     89.7388	       0	(  7  3  1)	  0  2
      6.2350	 4535.00	 4486.16	-1490.38	 4041.83	     89.7388	       0	(  5  5  3)	  0  2
      6.2610	 4482.00	 4468.89	-1526.10	 4024.55	     94.2844	       0	(  8  0  0)	  0  1
      6.2870	 4456.00	 4451.85	-1535.06	 4007.50	     94.5927	       0	(  8  0  0)	  0  2
      6.3130	 4520.00	 4435.03	-1454.24	 3990.67	     97.1949	       0	(  7  3  3)	  0  1
      6.3390	 4529.00	 4418.48	-1428.69	 3974.06	     97.5194	       0	(  7  3  3)	  0  2
      6.3650	 4555.00	 4402.10	-1386.31	 3957.68	     98.1690	       0	(  6  4  4)	  0  1
      6.3910	 4579.00	 4385.94	-1346.15	 3941.50	     98.4991	       0	(  6  4  4)	  0  2
      6.4170	 4486.00	 4369.99	-1423.20	 3925.54	    102.0926	       0	(  6  6  0)	  0  1
      6.4430	 4441.00	 4354.25	-1452.46	 3909.80	    102.0926	       0	(  8  2  2)	  0  1
      6.4690	 4464.00	 4338.71	-1413.93	 3894.26	    102.4466	       0	(  6  6  0)	  0  2
      6.4950	 4503.00	 4323.38	-1359.60	 3878.92	    102.4466	       0	(  8  2  2)	  0  2
      6.5210	 4433.00	 4308.26	-1414.47	 3863.78	    105.0731	       0	(  7  5  1)	  0  1
      6.5470	 4322.00	 4293.33	-1510.54	 3848.84	    105.0731	       0	(  5  5  5)	  0  1
      6.5730	 4241.00	 4278.59	-1576.81	 3834.10	    105.4467	       0	(  7  5  1)	  0  2
      6.5990	 4293.00	 4264.06	-1510.27	 3819.56	    105.4467	       0	(  5  5  5)	  0  2
      6.6250	 4436.00	 4249.71	-1352.92	 3805.20	    106.0757	       0	(  6  6  2)	  0  1
      6.6510	 4439.00	 4235.55	-1335.76	 3791.03	    106.4561	       0	(  6  6  2)	  0  2
      6.6770	 4377.00	 4221.58	-1383.79	 3777.05	    110.1413	       0	(  8  4  0)	  0  1
      6.7030	 4313.00	 4207.79	-1434.00	 3763.25	    110.5515	       0	(  8  4  0)	  0  2
      6.7290	 4371.00	 4194.18	-1362.39	 3749.64	    113.2610	       0	(  7  5  3)	  0  1
      6.7550	 4362.00	 4180.75	-1357.96	 3736.20	    113.2610	       0	(  9  1  1)	  0  1
      6.7810	 4311.00	 4167.49	-1395.70	 3722.93	    113.6961	       0	(  7  5  3)	  0  2
      6.8070	 4202.00	 4154.41	-1491.62	 3709.84	    113.6961	       0	(  9  1  1)	  0  2
      6.8330	 4254.00	 4141.50	-1426.71	 3696.92	    114.3170	       0	(  8  4  2)	  0  1
      6.8590	 4261.00	 4128.76	-1406.97	 3684.17	    114.7609	       0	(  8  4  2)	  0  2
      6.8850	 4275.00	 4116.18	-1380.39	 3671.59	    118.6364	       0	(  6  6  4)	  0  1
      6.9110	 4198.00	 4103.77	-1444.98	 3659.17	    119.1198	       0	(  6  6  4)	  0  2
      6.9370	 4094.00	 4091.52	-1536.73	 3646.91	    121.9962	       0	(  9  3  1)	  0  1
      6.9630	 4026.00	 4079.43	-1592.64	 3634.81	    122.5138	       0	(  9  3  1)	  0  2
      6.9890	 4115.00	 4067.49	-1491.71	 3622.87	    127.8973	       0	(  8  4  4)	  0  1
      7.0150	 4173.00	 4055.71	-1421.93	 3611.08	    128.4851	       0	(  8  4  4)	  0  2
      7.0410	 4201.00	 4044.09	-1382.30	 3599.44	    131.6746	       0	(  7  5  5)	  0  1
      7.0670	 4112.00	 4032.61	-1459.82	 3587.96	    131.6746	       0	(  7  7  1)	  0  1
      7.0930	 4024.00	 4021.28	-1536.50	 3576.62	    131.6746	       0	(  9  3  3)	  0  1
      7.1190	 4152.00	 4010.10	-1397.31	 3565.43	    132.3159	       0	(  7  5  5)	  0  2
      7.1450	 4196.00	 3999.07	-1342.28	 3554.39	    132.3159	       0	(  7  7  1)	  0  2
      7.1710	 4148.00	 3988.17	-1379.38	 3543.48	    132.3159	       0	(  9  3  3)	  0  2
      7.1970	 4119.00	 3977.42	-1397.63	 3532.72	    138.5352	       0	(  8  6  2)	  0  1
      7.2230	 4095.00	 3966.80	-1411.01	 3522.09	    138.5352	       0	( 10  2  0)	  0  1
      7.2490	 4038.00	 3956.32	-1457.53	 3511.60	    139.2977	       0	(  8  6  2)	  0  2
      7.2750	 4036.00	 3945.97	-1449.18	 3501.25	    139.2977	       0	( 10  2  0)	  0  2
      7.3010	 4046.00	 3935.75	-1428.97	 3491.02	    143.1373	       0	(  7  7  3)	  0  1
      7.3270	 4046.00	 3925.67	-1418.88	 3480.93	    143.1373	       0	(  9  5  1)	  0  1
      7.3530	 4028.00	 3915.71	-1426.92	 3470.96	    144.0061	       0	(  7  7  3)	  0  2
      7.3790	 4048.00	 3905.88	-1397.09	 3461.12	    144.0061	       0	(  9  5  1)	  0  2
      7.4050	 3979.00	 3896.18	-1456.39	 3451.41	    144.7844	       0	(  6  6  6)	  0  1
      7.4310	 3972.00	 3886.59	-1453.81	 3441.82	    144.7844	       0	( 10  2  2)	  0  1
      7.4570	 3876.00	 3877.13	-1540.34	 3432.35	    145.6980	       0	(  6  6  6)	  0  2
      7.4830	 3927.00	 3867.79	-1480.00	 3423.00	    145.6979	       0	( 10  2  2)	  0  2
      7.5090	 3954.00	 3858.56	-1443.78	 3413.76	    159.3186	       0	(  9  5  3)	  0  1
      7.5350	 3918.00	 3849.45	-1470.67	 3404.64	    160.9577	       0	(  9  5  3)	  0  2
      7.5610	 3856.00	 3840.46	-1523.67	 3395.64	    162.2789	       0	(  8  6  4)	  0  1
      7.5870	 3952.00	 3831.57	-1418.79	 3386.75	    164.2320	       0	(  8  6  4)	  0  2
      7.6130	 3901.00	 3822.80	-1461.01	 3377.96
      7.6390	 3898.00	 3814.14	-1455.35	 3369.29
      7.6650	 4024.00	 3805.58	-1320.79	 3360.72
      7.6910	 3978.00	 3797.13	-1358.34	 3352.26
      7.7170	 3904.00	 3788.78	-1423.99	 3343.91
      7.7430	 3947.00	 3780.54	-1372.75	 3335.65
      7.7690	 3905.00	 3772.39	-1406.60	 3327.50
      7.7950	 3823.00	 3764.35	-1480.56	 3319.45
      7.8210	 3888.00	 3756.40	-1407.61	 3311.49
      7.8470	 3788.00	 3748.55	-1499.76	 3303.63
      7.8730	 3874.00	 3740.79	-1406.00	 3295.87
      7.8990	 3837.00	 3733.13	-1435.34	 3288.20
      7.9250	 3949.00	 3725.56	-1315.77	 3280.61
      7.9510	 3735.00	 3718.08	-1522.29	 3273.13
      7.9770	 3807.00	 3710.69	-1442.90	 3265.73
      8.0030	 3799.00	 3703.38	-1443.60	 3258.41
      8.0290	 3751.00	 3696.17	-1484.38	 3251.19
      8.0550	 3635.00	 3689.04	-1593.25	 3244.05
      8.0810	 3704.00	 3681.99	-1517.20	 3236.99
      8.1070	 3683.00	 3675.02	-1531.24	 3230.02
      8.1330	 3624.00	 3668.14	-1583.35	 3223.12
      8.1590	 3658.00	 3661.34	-1542.55	 3216.31
      8.1850	 3634.00	 3654.61	-1559.82	 3209.57
      8.2110	 3732.00	 3647.96	-1455.17	 3202.91
      8.2370	 3660.00	 3641.39	-1520.60	 3196.33
      8.2630	 3705.00	 3634.89	-1469.10	 3189.83
      8.2890	 3691.00	 3628.47	-1476.68	 3183.39
      8.3150	 3636.00	 3622.12	-1525.33	 3177.03
      8.3410	 3585.00	 3615.84	-1570.05	 3170.75
      8.3670	 3614.00	 3609.63	-1534.84	 3164.53
      8.3930	 3660.00	 3603.49	-1482.70	 3158.38
      8.4190	 3674.00	 3597.42	-1462.63	 3152.30
      8.4450	 3631.00	 3591.41	-1499.62	 3146.28
      8.4710	 3529.00	 3585.47	-1595.68	 3140.33
      8.4970	 3601.00	 3579.60	-1517.81	 3134.45
      8.5230	 3638.00	 3573.79	-1475.00	 3128.63
      8.5490	 3657.00	 3568.04	-1450.25	 3122.87
      8.5750	 3660.00	 3562.35	-1441.56	 3117.18
      8.6010	 3620.00	 3556.73	-1475.94	 3111.54
      8.6270	 3664.00	 3551.16	-1426.37	 3105.97
      8.6530	 3608.00	 3545.65	-1476.87	 3100.45
      8.6790	 3541.00	 3540.20	-1538.42	 3094.99
      8.7050	 3531.00	 3534.81	-1543.02	 3089.59
      8.7310	 3498.00	 3529.48	-1570.69	 3084.24
      8.7570	 3577.00	 3524.20	-1486.41	 3078.95
      8.7830	 3610.00	 3518.97	-1448.18	 3073.71
      8.8090	 3557.00	 3513.79	-1496.01	 3068.53
      8.8350	 3457.00	 3508.67	-1590.88	 3063.40
      8.8610	 3526.00	 3503.60	-1516.82	 3058.32
      8.8870	 3580.00	 3498.58	-1457.80	 3053.29
      8.9130	 3526.00	 3493.61	-1506.83	 3048.31
      8.9390	 3497.00	 3488.69	-1530.91	 3043.38
      8.9650	 3506.00	 3483.82	-1517.03	 3038.50
      8.9910	 3507.00	 3479.00	-1511.21	 3033.67
      9.0170	 3478.00	 3474.22	-1535.43	 3028.88
      9.0430	 3482.00	 3469.49	-1526.70	 3024.14
      9.0690	 3464.00	 3464.80	-1540.01	 3019.44
      9.0950	 3453.00	 3460.16	-1546.37	 3014.79
      9.1210	 3458.00	 3455.56	-1536.77	 3010.18
      9.1470	 3472.00	 3451.00	-1518.21	 3005.61
      9.1730	 3421.00	 3446.49	-1564.70	 3001.09
      9.1990	 3376.00	 3442.02	-1605.23	 2996.60
      9.2250	 3405.00	 3437.58	-1571.80	 2992.16
      9.2510	 3484.00	 3433.19	-1488.40	 2987.76
      9.2770	 3463.00	 3428.84	-1505.05	 2983.40
      9.3030	 3377.00	 3424.53	-1586.74	 2979.08
      9.3290	 3393.00	 3420.25	-1566.46	 2974.79
      9.3550	 3332.00	 3416.01	-1623.23	 2970.54
      9.3810	 3366.00	 3411.81	-1585.03	 2966.33
      9.4070	 3344.00	 3407.65	-1602.86	 2962.16
      9.4330	 3492.00	 3403.52	-1450.73	 2958.02
      9.4590	 3605.00	 3399.43	-1333.64	 2953.92
      9.4850	 3555.00	 3395.37	-1379.58	 2949.85
      9.5110	 3439.00	 3391.34	-1491.56	 2945.81
      9.5370	 3313.00	 3387.35	-1613.56	 2941.81
      9.5630	 3292.00	 3383.39	-1630.61	 2937.84
      9.5890	 3281.00	 3379.47	-1637.68	 2933.91
      9.6150	 3294.00	 3375.57	-1620.79	 2930.00
      9.6410	 3294.00	 3371.71	-1616.92	 2926.13
      9.6670	 3249.00	 3367.88	-1658.09	 2922.29
      9.6930	 3201.00	 3364.08	-1702.29	 2918.47
      9.7190	 3252.00	 3360.30	-1647.52	 2914.69
      9.7450	 3255.00	 3356.56	-1640.77	 2910.94
      9.7710	 3424.00	 3352.85	-1468.06	 2907.21
      9.7970	 3216.00	 3349.16	-1672.37	 2903.52
      9.8230	 3260.00	 3345.50	-1624.72	 2899.85
      9.8490	 3264.00	 3341.87	-1617.09	 2896.21
      9.8750	 3284.00	 3338.27	-1593.48	 2892.60
      9.9010	 3334.00	 3334.69	-1539.91	 2889.01
      9.9270	 3200.00	 3331.14	-1670.36	 2885.45
      9.9530	 3222.00	 3327.62	-1644.83	 2881.91
      9.9790	 3193.00	 3324.12	-1670.33	 2878.41
     10.0050	 3331.00	 3320.65	-1528.86	 2874.92
     10.0310	 3084.00	 3317.20	-1772.41	 2871.46
     10.0570	 3230.00	 3313.77	-1622.99	 2868.03
     10.0830	 3176.00	 3310.37	-1673.58	 2864.61
     10.1090	 3241.00	 3306.99	-1605.21	 2861.23
     10.1350	 3230.00	 3303.64	-1612.85	 2857.86
     10.1610	 3210.00	 3300.31	-1629.52	 2854.52
     10.1870	 3163.00	 3297.00	-1673.21	 2851.20
     10.2130	 3196.00	 3293.71	-1636.92	 2847.90
     10.2390	 3167.00	 3290.45	-1662.66	 2844.62
     10.2650	 3237.00	 3287.20	-1589.42	 2841.37
     10.2910	 3125.00	 3283.98	-1698.19	 2838.14
     10.3170	 3188.00	 3280.78	-1631.99	 2834.92
     10.3430	 3139.00	 3277.60	-1677.81	 2831.73
     10.3690	 3116.00	 3274.44	-1697.65	 2828.56
     10.3950	 3037.00	 3271.30	-1773.51	 2825.41
     10.4210	 3085.00	 3268.18	-1722.39	 2822.28
     10.4470	 3252.00	 3265.08	-1552.29	 2819.17
     10.4730	 3074.00	 3261.99	-1727.21	 2816.07
     10.4990	 3161.00	 3258.93	-1637.14	 2813.00
     10.5250	 3148.00	 3255.88	-1647.10	 2809.94
     10.5510	 3080.00	 3252.86	-1712.07	 2806.91
     10.5770	 3137.00	 3249.85	-1652.06	 2803.89
     10.6030	 3192.00	 3246.86	-1594.07	 2800.89
     10.6290	 3097.00	 3243.89	-1686.10	 2797.90
     10.6550	 3155.00	 3240.94	-1625.15	 2794.94
     10.6810	 3061.00	 3238.00	-1716.21	 2791.99
     10.7070	 3039.00	 3235.08	-1735.29	 2789.06
     10.7330	 3196.00	 3232.17	-1575.39	 2786.15
     10.7590	 3191.00	 3229.29	-1577.50	 2783.25
     10.7850	 3189.00	 3226.42	-1576.63	 2780.37
     10.8110	 3215.00	 3223.56	-1547.78	 2777.50
     10.8370	 3199.00	 3220.73	-1560.94	 2774.65
     10.8630	 3091.00	 3217.91	-1666.12	 2771.82
     10.8890	 3093.00	 3215.10	-1661.31	 2769.00
     10.9150	 3106.00	 3212.31	-1645.52	 2766.20
     10.9410	 3097.00	 3209.54	-1651.75	 2763.42
     10.9670	 3052.00	 3206.78	-1693.99	 2760.65
     10.9930	 3099.00	 3204.03	-1644.25	 2757.89
     11.0190	 3131.00	 3201.30	-1609.52	 2755.15
     11.0450	 3160.00	 3198.59	-1577.80	 2752.43
     11.0710	 3150.00	 3195.89	-1585.10	 2749.72
     11.0970	 3212.00	 3193.21	-1520.42	 2747.02
     11.1230	 3186.00	 3190.54	-1543.75	 2744.34
     11.1490	 3173.00	 3187.88	-1554.09	 2741.67
     11.1750	 3136.00	 3185.24	-1588.45	 2739.02
     11.2010	 3048.00	 3182.61	-1673.82	 2736.38
     11.2270	 3063.00	 3180.00	-1656.21	 2733.75
     11.2530	 3070.00	 3177.40	-1646.61	 2731.14
     11.2790	 3056.00	 3174.81	-1658.03	 2728.55
     11.3050	 3111.00	 3172.24	-1600.46	 2725.96
     11.3310	 3124.00	 3169.68	-1584.90	 2723.39
     11.3570	 3084.00	 3167.14	-1622.35	 2720.84
     11.3830	 3106.00	 3164.61	-1597.82	 2718.30
     11.4090	 3154.00	 3162.09	-1547.30	 2715.77
     11.4350	 3099.00	 3159.59	-1599.80	 2713.25
     11.4610	 3058.00	 3157.10	-1638.31	 2710.75
     11.4870	 3112.00	 3154.62	-1581.83	 2708.26
     11.5130	 3151.00	 3152.15	-1540.37	 2705.78
     11.5390	 3143.00	 3149.70	-1545.91	 2703.32
     11.5650	 3149.00	 3147.26	-1537.48	 2700.87
     11.5910	 3142.00	 3144.84	-1542.05	 2698.43
     11.6170	 3085.00	 3142.42	-1596.64	 2696.00
     11.6430	 3074.00	 3140.02	-1605.24	 2693.59
     11.6690	 3090.00	 3137.65	-1586.86	 2691.19
     11.6950	 3100.00	 3135.27	-1574.49	 2688.81
     11.7210	 3152.00	 3132.91	-1520.12	 2686.43
     11.7470	 3174.00	 3130.56	-1495.77	 2684.07
     11.7730	 3147.00	 3128.22	-1520.44	 2681.72
     11.7990	 3154.00	 3125.91	-1511.12	 2679.39
     11.8250	 3147.00	 3123.59	-1515.81	 2677.06
     11.8510	 3110.00	 3121.29	-1550.51	 2674.75
     11.8770	 3110.00	 3119.01	-1548.22	 2672.45
     11.9030	 3108.00	 3116.73	-1547.95	 2670.17
     11.9290	 3102.00	 3114.47	-1551.68	 2667.89
     11.9550	 3031.00	 3112.22	-1620.44	 2665.63
     11.9810	 3071.00	 3109.99	-1578.20	 2663.38
     12.0070	 3092.00	 3107.76	-1554.97	 2661.14
     12.0330	 3049.00	 3105.55	-1595.76	 2658.92
     12.0590	 3089.00	 3103.35	-1553.56	 2656.71
     12.0850	 3078.00	 3101.16	-1562.38	 2654.51
     12.1110	 3135.00	 3098.99	-1503.20	 2652.32
     12.1370	 3130.00	 3096.83	-1506.04	 2650.15
     12.1630	 3067.00	 3094.68	-1566.89	 2647.98
     12.1890	 3094.00	 3092.54	-1537.75	 2645.83
     12.2150	 3077.00	 3090.41	-1552.63	 2643.70
     12.2410	 3120.00	 3088.30	-1507.51	 2641.57
     12.2670	 3100.00	 3086.20	-1525.41	 2639.46
     12.2930	 3083.00	 3084.11	-1540.33	 2637.36
     12.3190	 3078.00	 3082.04	-1543.25	 2635.27
     12.3450	 3072.00	 3079.98	-1547.19	 2633.19
     12.3710	 3080.00	 3077.93	-1537.14	 2631.13
     12.3970	 3129.00	 3075.89	-1486.10	 2629.08
     12.4230	 3039.00	 3073.86	-1574.07	 2627.04
     12.4490	 3064.00	 3071.85	-1547.06	 2625.02
     12.4750	 3060.00	 3069.85	-1549.06	 2623.00
     12.5010	 3155.00	 3067.86	-1452.08	 2621.00
     12.5270	 2937.00	 3065.89	-1668.10	 2619.02
     12.5530	 3033.00	 3063.93	-1570.14	 2617.04
     12.5790	 3010.00	 3061.98	-1591.19	 2615.08
     12.6050	 3048.00	 3060.04	-1551.25	 2613.13
     12.6310	 3027.00	 3058.12	-1570.33	 2611.19
     12.6570	 3114.00	 3056.21	-1481.42	 2609.27
     12.6830	 2904.00	 3054.31	-1689.52	 2607.36
     12.7090	 3028.00	 3052.42	-1563.63	 2605.46
     12.7350	 3048.00	 3050.55	-1541.76	 2603.57
     12.7610	 3084.00	 3048.69	-1503.90	 2601.70
     12.7870	 2990.00	 3046.84	-1596.06	 2599.84
     12.8130	 3118.00	 3045.01	-1466.22	 2598.00
     12.8390	 2962.00	 3043.19	-1620.40	 2596.16
     12.8650	 3073.00	 3041.38	-1507.60	 2594.34
     12.8910	 3045.00	 3039.59	-1533.80	 2592.54
     12.9170	 3016.00	 3037.81	-1561.02	 2590.74
     12.9430	 3029.00	 3036.04	-1546.26	 2588.96
     12.9690	 3112.00	 3034.29	-1461.50	 2587.19
     12.9950	 3025.00	 3032.55	-1546.76	 2585.44
     13.0210	 3037.00	 3030.82	-1533.03	 2583.70
     13.0470	 3123.00	 3029.11	-1445.32	 2581.97
     13.0730	 3020.00	 3027.41	-1546.62	 2580.26
     13.0990	 2991.00	 3025.72	-1573.94	 2578.56
     13.1250	 3038.00	 3024.05	-1525.26	 2576.87
     13.1510	 3065.00	 3022.39	-1496.60	 2575.20
     13.1770	 3037.00	 3020.75	-1522.96	 2573.54
     13.2030	 3027.00	 3019.12	-1531.33	 2571.90
     13.2290	 3012.00	 3017.50	-1544.71	 2570.27
     13.2550	 2938.00	 3015.90	-1617.11	 2568.65
     13.2810	 3053.00	 3014.31	-1500.52	 2567.05
     13.3070	 3093.00	 3012.73	-1458.94	 2565.46
     13.3330	 3098.00	 3011.17	-1452.38	 2563.88
     13.3590	 3082.00	 3009.62	-1466.83	 2562.32
     13.3850	 3072.00	 3008.09	-1475.30	 2560.77
     13.4110	 2999.00	 3006.57	-1546.78	 2559.24
     13.4370	 3107.00	 3005.07	-1437.28	 2557.72
     13.4630	 3189.00	 3003.58	-1353.79	 2556.22
     13.4890	 3075.00	 3002.10	-1466.31	 2554.73
     13.5150	 3083.00	 3000.64	-1456.85	 2553.26
     13.5410	 3085.00	 2999.20	-1453.41	 2551.79
     13.5670	 3031.00	 2997.79	-1506.00	 2550.35
