 DD67    CELL:    8.42249   8.42249   8.42249   90.0000   90.0000   90.0000   SPGR: F d -3 m               TEMP:      0.00
  1   2495     1.54056     1.54443     0.00000     0.00000     0.00000    0
    32     0     0
 2Theta	Yobs	Ycal	Yobs-Ycal	Backg	Posr	(hkl)	K
     15.0230	 2829.00	 2612.10	-1159.35	 2255.04
     15.0490	 2821.00	 2609.20	-1164.45	 2251.54
     15.0750	 2926.00	 2606.51	-1056.76	 2248.23
     15.1010	 2899.00	 2604.02	-1081.27	 2245.11
     15.1270	 2833.00	 2601.72	-1144.97	 2242.17
     15.1530	 2817.00	 2599.61	-1158.86	 2239.42
     15.1790	 2878.00	 2597.70	-1095.95	 2236.84
     15.2050	 2852.00	 2595.98	-1120.23	 2234.45
     15.2310	 2796.00	 2594.44	-1174.69	 2232.23
     15.2570	 2894.00	 2593.09	-1075.34	 2230.17
     15.2830	 2907.00	 2591.92	-1061.17	 2228.29
     15.3090	 2907.00	 2590.93	-1060.18	 2226.58
     15.3350	 2949.00	 2590.11	-1017.36	 2225.02
     15.3610	 2889.00	 2589.47	-1076.72	 2223.63
     15.3870	 2883.00	 2589.00	-1082.25	 2222.40
     15.4130	 2803.00	 2588.70	-1161.95	 2221.32
     15.4390	 2831.00	 2588.57	-1133.82	 2220.40
     15.4650	 2893.00	 2588.61	-1071.86	 2219.62
     15.4910	 2925.00	 2588.80	-1040.05	 2219.00
     15.5170	 2902.00	 2589.16	-1063.41	 2218.52
     15.5430	 2959.00	 2589.68	-1006.93	 2218.18
     15.5690	 2915.00	 2590.36	-1051.61	 2217.98
     15.5950	 2836.00	 2591.19	-1131.44	 2217.92
     15.6210	 2889.00	 2592.18	-1079.43	 2218.00
     15.6470	 2828.00	 2593.31	-1141.56	 2218.21
     15.6730	 2960.00	 2594.60	-1010.85	 2218.56
     15.6990	 2965.00	 2596.03	-1007.28	 2219.03
     15.7250	 2908.00	 2597.61	-1065.86	 2219.63
     15.7510	 2946.00	 2599.33	-1029.58	 2220.35
     15.7770	 2939.00	 2601.20	-1038.45	 2221.20
     15.8030	 2920.00	 2603.21	-1059.46	 2222.16
     15.8290	 2872.00	 2605.35	-1109.60	 2223.25
     15.8550	 2920.00	 2607.64	-1063.89	 2224.45
     15.8810	 3007.00	 2610.06	 -979.31	 2225.76
     15.9070	 2985.00	 2612.61	-1003.86	 2227.19
     15.9330	 2947.00	 2615.30	-1044.55	 2228.72
     15.9590	 2902.00	 2618.12	-1092.37	 2230.37
     15.9850	 2865.00	 2621.06	-1132.31	 2232.11
     16.0110	 2905.00	 2624.14	-1095.39	 2233.97
     16.0370	 2924.00	 2627.34	-1079.59	 2235.92
     16.0630	 2921.00	 2630.67	-1085.92	 2237.97
     16.0890	 2969.00	 2634.12	-1041.37	 2240.12
     16.1150	 2905.00	 2637.70	-1108.95	 2242.37
     16.1410	 2961.00	 2641.40	-1056.65	 2244.71
     16.1670	 2803.00	 2645.22	-1218.47	 2247.14
     16.1930	 2938.00	 2649.15	-1087.40	 2249.66
     16.2190	 2910.00	 2653.21	-1119.46	 2252.28
     16.2450	 2916.00	 2657.38	-1117.63	 2254.97
     16.2710	 2955.00	 2661.67	-1082.92	 2257.75
     16.2970	 2914.00	 2666.07	-1128.32	 2260.62
     16.3230	 2923.00	 2670.59	-1123.84	 2263.57
     16.3490	 2974.00	 2675.22	-1077.47	 2266.59
     16.3750	 2988.00	 2679.96	-1068.21	 2269.70
     16.4010	 2977.00	 2684.81	-1084.06	 2272.88
     16.4270	 3066.00	 2689.77	-1000.02	 2276.13
     16.4530	 3077.00	 2694.84	 -994.09	 2279.46
     16.4790	 2992.00	 2700.02	-1084.27	 2282.86
     16.5050	 3048.00	 2705.30	-1033.55	 2286.32
     16.5310	 2949.00	 2710.69	-1137.94	 2289.86
     16.5570	 2908.00	 2716.18	-1184.43	 2293.46
     16.5830	 2984.00	 2721.78	-1114.03	 2297.13
     16.6090	 3028.00	 2727.48	-1075.73	 2300.86
     16.6350	 3020.00	 2733.28	-1089.53	 2304.65
     16.6610	 2989.00	 2739.18	-1126.43	 2308.51
     16.6870	 2975.00	 2745.18	-1146.43	 2312.42
     16.7130	 2942.00	 2751.28	-1185.53	 2316.39
     16.7390	 2957.00	 2757.48	-1176.73	 2320.41
     16.7650	 3022.00	 2763.77	-1118.02	 2324.49
     16.7910	 3016.00	 2770.16	-1130.41	 2328.63
     16.8170	 3054.00	 2776.64	-1098.89	 2332.81
     16.8430	 3104.00	 2783.22	-1055.47	 2337.05
     16.8690	 3043.00	 2789.89	-1123.14	 2341.33
     16.8950	 3011.00	 2796.64	-1161.89	 2345.66
     16.9210	 3019.00	 2803.49	-1160.74	 2350.04
     16.9470	 3040.00	 2810.42	-1146.67	 2354.46
     16.9730	 3031.00	 2817.44	-1162.69	 2358.93
     16.9990	 2975.00	 2824.54	-1225.79	 2363.44
     17.0250	 2998.00	 2831.73	-1209.98	 2367.99
     17.0510	 3047.00	 2838.99	-1168.24	 2372.58
     17.0770	 3062.00	 2846.33	-1160.58	 2377.21
     17.1030	 3027.00	 2853.75	-1203.00	 2381.88
     17.1290	 3031.00	 2861.24	-1206.49	 2386.59
     17.1550	 3102.00	 2868.80	-1143.05	 2391.33
     17.1810	 3077.00	 2876.43	-1175.68	 2396.10
     17.2070	 3012.00	 2884.12	-1248.37	 2400.90
     17.2330	 2985.00	 2891.88	-1283.13	 2405.74
     17.2590	 3049.00	 2899.69	-1226.94	 2410.61
     17.2850	 3091.00	 2907.56	-1192.81	 2415.51
     17.3110	 3002.00	 2915.47	-1289.72	 2420.44
     17.3370	 3085.00	 2923.44	-1214.69	 2425.39
     17.3630	 3020.00	 2931.44	-1287.69	 2430.37
     17.3890	 3021.00	 2939.49	-1294.74	 2435.38
     17.4150	 3088.00	 2947.56	-1235.81	 2440.41
     17.4410	 3081.00	 2955.67	-1250.92	 2445.46
     17.4670	 3044.00	 2963.79	-1296.04	 2450.54
     17.4930	 3057.00	 2971.93	-1291.18	 2455.63
     17.5190	 3135.00	 2980.08	-1221.33	 2460.75
     17.5450	 3093.00	 2988.24	-1271.49	 2465.89
     17.5710	 3096.00	 2996.39	-1276.64	 2471.04
     17.5970	 3080.00	 3004.53	-1300.78	 2476.21
     17.6230	 3163.00	 3012.66	-1225.91	 2481.40
     17.6490	 3101.00	 3020.76	-1296.01	 2486.61
     17.6750	 3012.00	 3028.83	-1393.08	 2491.83
     17.7010	 3062.00	 3036.86	-1351.11	 2497.06
     17.7270	 3075.00	 3044.84	-1346.09	 2502.31
     17.7530	 3150.00	 3052.77	-1279.02	 2507.56
     17.7790	 3061.00	 3060.64	-1375.89	 2512.83
     17.8050	 3014.00	 3068.43	-1430.68	 2518.11
     17.8310	 3092.00	 3076.14	-1360.39	 2523.40
     17.8570	 3134.00	 3083.77	-1326.02	 2528.70
     17.8830	 3041.00	 3091.30	-1426.55	 2534.00
     17.9090	 3107.00	 3098.73	-1367.98	 2539.32
     17.9350	 3076.00	 3106.05	-1406.30	 2544.64
     17.9610	 3056.00	 3113.25	-1433.50	 2549.96
     17.9870	 3030.00	 3120.32	-1466.57	 2555.29
     18.0130	 3002.00	 3127.27	-1501.52	 2560.63
     18.0390	 3229.00	 3134.07	-1281.32	 2565.96
     18.0650	 3146.00	 3140.73	-1370.98	 2571.30
     18.0910	 3129.00	 3147.24	-1394.49	 2576.64
     18.1170	 3058.00	 3153.60	-1471.85	 2581.99
     18.1430	 3052.00	 3159.80	-1484.05	 2587.33
     18.1690	 3090.00	 3165.83	-1452.08	 2592.67
     18.1950	 3057.00	 3171.70	-1490.95	 2598.02
     18.2210	 3110.00	 3177.41	-1443.66	 2603.36
     18.2470	 3151.00	 3182.94	-1408.19	 2608.70
     18.2730	 3093.00	 3188.30	-1471.55	 2614.03
     18.2990	 3046.00	 3193.50	-1523.75	 2619.37
     18.3250	 3015.00	 3198.52	-1559.77	 2624.69
     18.3510	 3017.00	 3203.37	-1562.62	 2630.02
     18.3770	 3050.00	 3208.06	-1534.31	 2635.34
     18.4030	 3040.00	 3212.59	-1548.84	 2640.65
     18.4290	 3067.00	 3216.95	-1526.20	 2645.96
     18.4550	 3152.00	 3221.15	-1445.40	 2651.26
     18.4810	 3161.00	 3225.21	-1440.46	 2656.55
     18.5070	 3056.00	 3229.11	-1549.36	 2661.83
     18.5330	 3100.00	 3232.87	-1509.12	 2667.11
     18.5590	 3027.00	 3236.49	-1585.74	 2672.37
     18.5850	 3098.00	 3239.99	-1518.24	 2677.63
     18.6110	 3091.00	 3243.35	-1528.60	 2682.87
     18.6370	 3115.00	 3246.60	-1507.85	 2688.11
     18.6630	 3149.00	 3249.73	-1476.98	 2693.33
     18.6890	 3138.00	 3252.76	-1491.01	 2698.55
     18.7150	 3087.00	 3255.69	-1544.94	 2703.75
     18.7410	 3062.00	 3258.52	-1572.77	 2708.93
     18.7670	 3124.00	 3261.27	-1513.52	 2714.11
     18.7930	 3075.00	 3263.94	-1565.19	 2719.27
     18.8190	 3100.00	 3266.54	-1542.79	 2724.41
     18.8450	 3137.00	 3269.08	-1508.33	 2729.55
     18.8710	 3125.00	 3271.55	-1522.80	 2734.66
     18.8970	 3114.00	 3273.97	-1536.22	 2739.76
     18.9230	 3087.00	 3276.34	-1565.59	 2744.85
     18.9490	 3168.00	 3278.67	-1486.92	 2749.92
     18.9750	 3118.00	 3280.97	-1539.22	 2754.97
     19.0010	 3130.00	 3283.23	-1529.48	 2760.01
     19.0270	 3137.00	 3285.47	-1524.72	 2765.02
     19.0530	 3078.00	 3287.69	-1585.94	 2770.03
     19.0790	 3016.00	 3289.88	-1650.13	 2775.01
     19.1050	 2995.00	 3292.07	-1673.32	 2779.97
     19.1310	 3054.00	 3294.25	-1616.50	 2784.92
     19.1570	 3053.00	 3296.41	-1619.66	 2789.84
     19.1830	 3127.00	 3298.58	-1547.83	 2794.75
     19.2090	 3157.00	 3300.75	-1520.00	 2799.63
     19.2350	 3106.00	 3302.92	-1573.17	 2804.50
     19.2610	 3082.00	 3305.09	-1599.34	 2809.34
     19.2870	 3090.00	 3307.28	-1593.53	 2814.17
     19.3130	 3094.00	 3309.47	-1591.72	 2818.97
     19.3390	 3123.00	 3311.67	-1564.92	 2823.75
     19.3650	 3148.00	 3313.89	-1542.14	 2828.51
     19.3910	 3127.00	 3316.11	-1565.36	 2833.25
     19.4170	 3136.00	 3318.36	-1558.61	 2837.96
     19.4430	 3098.00	 3320.62	-1598.87	 2842.66
     19.4690	 3039.00	 3322.89	-1660.14	 2847.32
     19.4950	 3034.00	 3325.19	-1667.44	 2851.97
     19.5210	 3018.00	 3327.50	-1685.75	 2856.59
     19.5470	 3085.00	 3329.83	-1621.08	 2861.19
     19.5730	 3159.00	 3332.17	-1549.42	 2865.76
     19.5990	 3152.00	 3334.54	-1558.79	 2870.31
     19.6250	 3139.00	 3336.92	-1574.17	 2874.84
     19.6510	 3157.00	 3339.32	-1558.57	 2879.34
     19.6770	 3182.00	 3341.74	-1535.99	 2883.82
     19.7030	 3112.00	 3344.18	-1608.43	 2888.27
     19.7290	 3104.00	 3346.63	-1618.88	 2892.69
     19.7550	 3120.00	 3349.11	-1605.36	 2897.09
     19.7810	 3178.00	 3351.59	-1549.84	 2901.46
     19.8070	 3150.00	 3354.10	-1580.35	 2905.81
     19.8330	 3093.00	 3356.61	-1639.86	 2910.13
     19.8590	 3136.00	 3359.15	-1599.40	 2914.42
     19.8850	 3210.00	 3361.70	-1527.95	 2918.69
     19.9110	 3208.00	 3364.26	-1532.51	 2922.93
     19.9370	 3167.00	 3366.83	-1576.08	 2927.15
     19.9630	 3223.00	 3369.42	-1522.67	 2931.33
     19.9890	 3215.00	 3372.01	-1533.26	 2935.49
     20.0150	 3202.00	 3374.62	-1548.87	 2939.62
     20.0410	 3178.00	 3377.24	-1575.49	 2943.73
     20.0670	 3160.00	 3379.86	-1596.11	 2947.80
     20.0930	 3224.00	 3382.49	-1534.74	 2951.85
     20.1190	 3267.00	 3385.14	-1494.39	 2955.87
     20.1450	 3238.00	 3387.78	-1526.03	 2959.86
     20.1710	 3192.00	 3390.44	-1574.69	 2963.82
     20.1970	 3211.00	 3393.09	-1558.34	 2967.76
     20.2230	 3212.00	 3395.76	-1560.01	 2971.66
     20.2490	 3153.00	 3398.42	-1621.67	 2975.54
     20.2750	 3133.00	 3401.09	-1644.34	 2979.39
     20.3010	 3140.00	 3403.76	-1640.01	 2983.21
     20.3270	 3157.00	 3406.43	-1625.68	 2986.99
     20.3530	 3209.00	 3409.11	-1576.36	 2990.75
     20.3790	 3199.00	 3411.78	-1589.03	 2994.48
     20.4050	 3320.00	 3414.45	-1470.70	 2998.19
     20.4310	 3252.00	 3417.12	-1541.37	 3001.86
     20.4570	 3290.00	 3419.78	-1506.03	 3005.50
     20.4830	 3356.00	 3422.45	-1442.70	 3009.11
     20.5090	 3144.00	 3425.11	-1657.36	 3012.69
     20.5350	 3292.00	 3427.76	-1512.01	 3016.24
     20.5610	 3185.00	 3430.41	-1621.66	 3019.77
     20.5870	 3238.00	 3433.06	-1571.31	 3023.26
     20.6130	 3281.00	 3435.69	-1530.94	 3026.72
     20.6390	 3371.00	 3438.33	-1443.58	 3030.15
     20.6650	 3316.00	 3440.95	-1501.20	 3033.55
     20.6910	 3164.00	 3443.57	-1655.82	 3036.92
     20.7170	 3333.00	 3446.17	-1489.42	 3040.26
     20.7430	 3367.00	 3448.77	-1458.02	 3043.57
     20.7690	 3300.00	 3451.36	-1527.61	 3046.85
     20.7950	 3242.00	 3453.94	-1588.19	 3050.10
     20.8210	 3256.00	 3456.51	-1576.76	 3053.32
     20.8470	 3231.00	 3459.07	-1604.32	 3056.51
     20.8730	 3257.00	 3461.61	-1580.86	 3059.66
     20.8990	 3321.00	 3464.15	-1519.40	 3062.79
     20.9250	 3208.00	 3466.67	-1634.92	 3065.88
     20.9510	 3373.00	 3469.17	-1472.42	 3068.95
     20.9770	 3213.00	 3471.67	-1634.92	 3071.98
     21.0030	 3259.00	 3474.15	-1591.40	 3074.98
     21.0290	 3276.00	 3476.62	-1576.87	 3077.95
     21.0550	 3159.00	 3479.07	-1696.32	 3080.89
     21.0810	 3268.00	 3481.51	-1589.76	 3083.80
     21.1070	 3326.00	 3483.93	-1534.18	 3086.68
     21.1330	 3313.00	 3486.34	-1549.59	 3089.53
     21.1590	 3310.00	 3488.73	-1554.98	 3092.34
     21.1850	 3189.00	 3491.10	-1678.35	 3095.13
     21.2110	 3348.00	 3493.46	-1521.71	 3097.88
     21.2370	 3277.00	 3495.80	-1595.05	 3100.61
     21.2630	 3305.00	 3498.13	-1569.38	 3103.30
     21.2890	 3363.00	 3500.44	-1513.69	 3105.96
     21.3150	 3375.00	 3502.73	-1503.98	 3108.59
     21.3410	 3380.00	 3505.00	-1501.25	 3111.19
     21.3670	 3311.00	 3507.25	-1572.50	 3113.76
     21.3930	 3291.00	 3509.49	-1594.74	 3116.30
     21.4190	 3299.00	 3511.70	-1588.95	 3118.80
     21.4450	 3310.00	 3513.90	-1580.15	 3121.28
     21.4710	 3276.00	 3516.08	-1616.33	 3123.72
     21.4970	 3360.00	 3518.24	-1534.49	 3126.14
     21.5230	 3322.00	 3520.38	-1574.63	 3128.52
     21.5490	 3403.00	 3522.50	-1495.75	 3130.87
     21.5750	 3404.00	 3524.60	-1496.85	 3133.19
     21.6010	 3379.00	 3526.69	-1523.94	 3135.48
     21.6270	 3384.00	 3528.75	-1521.00	 3137.74
     21.6530	 3388.00	 3530.79	-1519.04	 3139.97
     21.6790	 3346.00	 3532.81	-1563.06	 3142.17
     21.7050	 3388.00	 3534.81	-1523.06	 3144.34
     21.7310	 3370.00	 3536.79	-1543.04	 3146.47
     21.7570	 3374.00	 3538.75	-1541.00	 3148.58
     21.7830	 3354.00	 3540.68	-1562.93	 3150.66
     21.8090	 3324.00	 3542.60	-1594.85	 3152.70
     21.8350	 3356.00	 3544.50	-1564.75	 3154.72
     21.8610	 3402.00	 3546.37	-1520.62	 3156.70
     21.8870	 3389.00	 3548.22	-1535.47	 3158.65
     21.9130	 3373.00	 3550.06	-1553.31	 3160.58
     21.9390	 3425.00	 3551.87	-1503.12	 3162.47
     21.9650	 3436.00	 3553.65	-1493.90	 3164.33
     21.9910	 3393.00	 3555.42	-1538.67	 3166.17
     22.0170	 3413.00	 3557.17	-1520.42	 3167.97
     22.0430	 3483.00	 3558.89	-1452.14	 3169.74
     22.0690	 3505.00	 3560.59	-1431.84	 3171.48
     22.0950	 3432.00	 3562.27	-1506.52	 3173.20
     22.1210	 3394.00	 3563.93	-1546.18	 3174.88
     22.1470	 3439.00	 3565.57	-1502.82	 3176.53
     22.1730	 3414.00	 3567.18	-1529.43	 3178.16
     22.1990	 3414.00	 3568.77	-1531.02	 3179.75
     22.2250	 3434.00	 3570.34	-1512.59	 3181.32
     22.2510	 3400.00	 3571.89	-1548.14	 3182.85
     22.2770	 3448.00	 3573.42	-1501.67	 3184.36
     22.3030	 3425.00	 3574.92	-1526.17	 3185.83
     22.3290	 3367.00	 3576.41	-1585.66	 3187.28
     22.3550	 3405.00	 3577.87	-1549.12	 3188.69
     22.3810	 3461.00	 3579.30	-1494.55	 3190.08
     22.4070	 3487.00	 3580.72	-1469.97	 3191.44
     22.4330	 3463.00	 3582.11	-1495.36	 3192.77
     22.4590	 3451.00	 3583.49	-1508.74	 3194.07
     22.4850	 3406.00	 3584.83	-1555.08	 3195.34
     22.5110	 3543.00	 3586.16	-1419.41	 3196.59
     22.5370	 3467.00	 3587.47	-1496.72	 3197.80
     22.5630	 3502.00	 3588.75	-1463.00	 3198.99
     22.5890	 3539.00	 3590.01	-1427.26	 3200.14
     22.6150	 3466.00	 3591.25	-1501.50	 3201.27
     22.6410	 3324.00	 3592.47	-1644.72	 3202.37
     22.6670	 3427.00	 3593.67	-1542.92	 3203.45
     22.6930	 3510.00	 3594.84	-1461.09	 3204.49
     22.7190	 3556.00	 3596.00	-1416.25	 3205.50
     22.7450	 3486.00	 3597.13	-1487.38	 3206.49
     22.7710	 3460.00	 3598.24	-1514.49	 3207.45
     22.7970	 3548.00	 3599.32	-1427.57	 3208.38
     22.8230	 3457.00	 3600.39	-1519.64	 3209.29
     22.8490	 3556.00	 3601.44	-1421.69	 3210.16
     22.8750	 3532.00	 3602.46	-1446.71	 3211.01
     22.9010	 3521.00	 3603.46	-1458.71	 3211.83
     22.9270	 3527.00	 3604.44	-1453.69	 3212.63
     22.9530	 3516.00	 3605.40	-1465.65	 3213.39
     22.9790	 3468.00	 3606.34	-1514.59	 3214.13
     23.0050	 3508.00	 3607.26	-1475.51	 3214.84
     23.0310	 3540.00	 3608.15	-1444.40	 3215.53
     23.0570	 3465.00	 3609.03	-1520.28	 3216.19
     23.0830	 3424.00	 3609.88	-1562.13	 3216.82
     23.1090	 3569.00	 3610.72	-1417.97	 3217.42
     23.1350	 3550.00	 3611.53	-1437.78	 3218.00
     23.1610	 3564.00	 3612.32	-1424.57	 3218.55
     23.1870	 3545.00	 3613.10	-1444.35	 3219.08
     23.2130	 3610.00	 3613.85	-1380.10	 3219.57
     23.2390	 3605.00	 3614.58	-1385.83	 3220.05
     23.2650	 3534.00	 3615.29	-1457.54	 3220.49
     23.2910	 3510.00	 3615.98	-1482.23	 3220.91
     23.3170	 3570.00	 3616.65	-1422.90	 3221.31
     23.3430	 3567.00	 3617.30	-1426.55	 3221.67
     23.3690	 3534.00	 3617.94	-1460.19	 3222.02
     23.3950	 3525.00	 3618.55	-1469.80	 3222.33
     23.4210	 3588.00	 3619.14	-1407.39	 3222.62
     23.4470	 3551.00	 3619.71	-1444.96	 3222.89
     23.4730	 3583.00	 3620.27	-1413.52	 3223.13
     23.4990	 3668.00	 3620.80	-1329.05	 3223.34
     23.5250	 3602.00	 3621.32	-1395.57	 3223.53
     23.5510	 3589.00	 3621.81	-1409.06	 3223.70
     23.5770	 3558.00	 3622.29	-1440.54	 3223.83
     23.6030	 3495.00	 3622.75	-1504.00	 3223.95
     23.6290	 3653.00	 3623.19	-1346.44	 3224.04
     23.6550	 3521.00	 3623.61	-1478.86	 3224.10
     23.6810	 3456.00	 3624.02	-1544.27	 3224.15
     23.7070	 3536.00	 3624.40	-1464.65	 3224.16
     23.7330	 3661.00	 3624.77	-1340.02	 3224.15
     23.7590	 3672.00	 3625.12	-1329.37	 3224.12
     23.7850	 3601.00	 3625.45	-1400.70	 3224.06
     23.8110	 3665.00	 3625.76	-1337.01	 3223.98
     23.8370	 3626.00	 3626.06	-1376.31	 3223.88
     23.8630	 3584.00	 3626.34	-1418.59	 3223.75
     23.8890	 3627.00	 3626.60	-1375.85	 3223.60
     23.9150	 3564.00	 3626.84	-1439.09	 3223.42
     23.9410	 3622.00	 3627.07	-1381.32	 3223.22
     23.9670	 3677.00	 3627.28	-1326.53	 3223.00
     23.9930	 3642.00	 3627.47	-1361.72	 3222.76
     24.0190	 3631.00	 3627.65	-1372.90	 3222.49
     24.0450	 3681.00	 3627.81	-1323.06	 3222.19
     24.0710	 3606.00	 3627.96	-1398.21	 3221.88
     24.0970	 3637.00	 3628.09	-1367.34	 3221.54
     24.1230	 3647.00	 3628.20	-1357.45	 3221.18
     24.1490	 3664.00	 3628.30	-1340.55	 3220.80
     24.1750	 3633.00	 3628.38	-1371.63	 3220.39
     24.2010	 3700.00	 3628.44	-1304.69	 3219.96
     24.2270	 3658.00	 3628.49	-1346.74	 3219.51
     24.2530	 3582.00	 3628.53	-1422.78	 3219.04
     24.2790	 3637.00	 3628.55	-1367.80	 3218.55
     24.3050	 3604.00	 3628.56	-1400.81	 3218.03
     24.3310	 3627.00	 3628.55	-1377.80	 3217.49
     24.3570	 3610.00	 3628.53	-1394.78	 3216.93
     24.3830	 3547.00	 3628.49	-1457.74	 3216.35
     24.4090	 3591.00	 3628.44	-1413.69	 3215.75
     24.4350	 3597.00	 3628.37	-1407.62	 3215.12
     24.4610	 3620.00	 3628.30	-1384.55	 3214.47
     24.4870	 3619.00	 3628.20	-1385.45	 3213.81
     24.5130	 3605.00	 3628.10	-1399.35	 3213.12
     24.5390	 3647.00	 3627.98	-1357.23	 3212.41
     24.5650	 3656.00	 3627.85	-1348.10	 3211.68
     24.5910	 3667.00	 3627.71	-1336.96	 3210.92
     24.6170	 3614.00	 3627.55	-1389.80	 3210.15
     24.6430	 3581.00	 3627.38	-1422.63	 3209.36
     24.6690	 3615.00	 3627.20	-1388.45	 3208.55
     24.6950	 3598.00	 3627.01	-1405.26	 3207.71
     24.7210	 3564.00	 3626.80	-1439.05	 3206.86
     24.7470	 3589.00	 3626.59	-1413.84	 3205.98
     24.7730	 3586.00	 3626.36	-1416.61	 3205.09
     24.7990	 3580.00	 3626.12	-1422.37	 3204.17
     24.8250	 3632.00	 3625.87	-1370.12	 3203.24
     24.8510	 3589.00	 3625.61	-1412.86	 3202.29
     24.8770	 3617.00	 3625.34	-1384.59	 3201.31
     24.9030	 3659.00	 3625.06	-1342.31	 3200.32
     24.9290	 3613.00	 3624.77	-1388.02	 3199.31
     24.9550	 3626.00	 3624.47	-1374.72	 3198.27
     24.9810	 3644.00	 3624.16	-1356.41	 3197.22
     25.0070	 3603.00	 3623.85	-1397.10	 3196.15
     25.0330	 3580.00	 3623.52	-1419.77	 3195.06
     25.0590	 3625.00	 3623.18	-1374.43	 3193.95
     25.0850	 3695.00	 3622.84	-1304.09	 3192.83
     25.1110	 3716.00	 3622.49	-1282.74	 3191.68
     25.1370	 3708.00	 3622.12	-1290.37	 3190.52
     25.1630	 3696.00	 3621.76	-1302.01	 3189.33
     25.1890	 3713.00	 3621.38	-1284.63	 3188.13
     25.2150	 3734.00	 3621.00	-1263.25	 3186.91
     25.2410	 3614.00	 3620.61	-1382.86	 3185.67
     25.2670	 3614.00	 3620.21	-1382.46	 3184.42
     25.2930	 3686.00	 3619.80	-1310.05	 3183.14
     25.3190	 3698.00	 3619.39	-1297.64	 3181.85
     25.3450	 3685.00	 3618.98	-1310.23	 3180.54
     25.3710	 3626.00	 3618.56	-1368.81	 3179.21
     25.3970	 3713.00	 3618.13	-1281.38	 3177.87
     25.4230	 3612.00	 3617.70	-1381.95	 3176.51
     25.4490	 3635.00	 3617.26	-1358.51	 3175.13
