 DD67    CELL:    8.43093   8.43093   8.43093   90.0000   90.0000   90.0000   SPGR: F d -3 m               TEMP:      0.00
  1   2495     1.54056     1.54443     0.00000     0.00000     0.00000    0
    32     0     0
 2Theta	Yobs	Ycal	Yobs-Ycal	Backg	Posr	(hkl)	K
     15.0230	 2829.00	 2761.83	-1527.63	 2273.07
     15.0490	 2821.00	 2761.99	-1535.79	 2273.07
     15.0750	 2926.00	 2762.16	-1430.96	 2273.07
     15.1010	 2899.00	 2762.34	-1458.14	 2273.07
     15.1270	 2833.00	 2762.51	-1524.31	 2273.07
     15.1530	 2817.00	 2762.69	-1540.50	 2273.07
     15.1790	 2878.00	 2762.88	-1479.68	 2273.07
     15.2050	 2852.00	 2763.07	-1505.87	 2273.07
     15.2310	 2796.00	 2763.26	-1562.07	 2273.07
     15.2570	 2894.00	 2763.46	-1464.26	 2273.07
     15.2830	 2907.00	 2763.67	-1451.47	 2273.07
     15.3090	 2907.00	 2763.88	-1451.68	 2273.07
     15.3350	 2949.00	 2764.09	-1409.89	 2273.07
     15.3610	 2889.00	 2764.31	-1470.11	 2273.07
     15.3870	 2883.00	 2764.53	-1476.33	 2273.07
     15.4130	 2803.00	 2764.76	-1556.56	 2273.07
     15.4390	 2831.00	 2765.00	-1528.80	 2273.07
     15.4650	 2893.00	 2765.24	-1467.04	 2273.07
     15.4910	 2925.00	 2765.49	-1435.29	 2273.07
     15.5170	 2902.00	 2765.74	-1458.55	 2273.07
     15.5430	 2959.00	 2766.01	-1401.81	 2273.07
     15.5690	 2915.00	 2765.01	-1444.82	 2271.82
     15.5950	 2836.00	 2767.77	-1526.57	 2274.30
     15.6210	 2889.00	 2770.53	-1476.33	 2276.77
     15.6470	 2828.00	 2773.30	-1540.10	 2279.25
     15.6730	 2960.00	 2776.08	-1410.88	 2281.73
     15.6990	 2965.00	 2778.87	-1408.67	 2284.21
     15.7250	 2908.00	 2781.66	-1468.46	 2286.69
     15.7510	 2946.00	 2784.46	-1433.27	 2289.17
     15.7770	 2939.00	 2787.28	-1443.08	 2291.65
     15.8030	 2920.00	 2790.10	-1464.90	 2294.13
     15.8290	 2872.00	 2792.93	-1515.73	 2296.61
     15.8550	 2920.00	 2795.78	-1470.58	 2299.09
     15.8810	 3007.00	 2798.63	-1386.43	 2301.57
     15.9070	 2985.00	 2801.50	-1411.30	 2304.05
     15.9330	 2947.00	 2804.37	-1452.17	 2306.53
     15.9590	 2902.00	 2807.26	-1500.06	 2309.01
     15.9850	 2865.00	 2810.16	-1539.96	 2311.49
     16.0110	 2905.00	 2813.08	-1502.88	 2313.96
     16.0370	 2924.00	 2816.01	-1486.81	 2316.44
     16.0630	 2921.00	 2818.95	-1492.75	 2318.92
     16.0890	 2969.00	 2821.91	-1447.71	 2321.40
     16.1150	 2905.00	 2824.88	-1514.69	 2323.88
     16.1410	 2961.00	 2827.88	-1461.68	 2326.36
     16.1670	 2803.00	 2830.88	-1622.68	 2328.84
     16.1930	 2938.00	 2833.91	-1490.71	 2331.32
     16.2190	 2910.00	 2836.95	-1521.75	 2333.80
     16.2450	 2916.00	 2840.02	-1518.82	 2336.28
     16.2710	 2955.00	 2843.10	-1482.90	 2338.76
     16.2970	 2914.00	 2846.21	-1527.01	 2341.24
     16.3230	 2923.00	 2849.34	-1521.14	 2343.72
     16.3490	 2974.00	 2852.49	-1473.29	 2346.20
     16.3750	 2988.00	 2855.67	-1462.47	 2348.68
     16.4010	 2977.00	 2858.87	-1476.67	 2351.16
     16.4270	 3066.00	 2862.10	-1390.90	 2353.63
     16.4530	 3077.00	 2865.36	-1383.16	 2356.11
     16.4790	 2992.00	 2868.64	-1471.45	 2358.59
     16.5050	 3048.00	 2871.96	-1418.77	 2361.07
     16.5310	 2949.00	 2875.32	-1521.12	 2363.55
     16.5570	 2908.00	 2878.70	-1565.51	 2366.03
     16.5830	 2984.00	 2882.13	-1492.93	 2368.51
     16.6090	 3028.00	 2885.59	-1452.39	 2370.99
     16.6350	 3020.00	 2889.09	-1463.89	 2373.47
     16.6610	 2989.00	 2892.64	-1498.44	 2375.95
     16.6870	 2975.00	 2896.23	-1516.03	 2378.43
     16.7130	 2942.00	 2899.87	-1552.67	 2380.91
     16.7390	 2957.00	 2903.56	-1541.36	 2383.39
     16.7650	 3022.00	 2907.30	-1480.10	 2385.87
     16.7910	 3016.00	 2911.09	-1489.90	 2388.35
     16.8170	 3054.00	 2914.95	-1455.75	 2390.82
     16.8430	 3104.00	 2918.87	-1409.67	 2393.30
     16.8690	 3043.00	 2922.85	-1474.66	 2395.78
     16.8950	 3011.00	 2926.91	-1510.71	 2398.26
     16.9210	 3019.00	 2931.04	-1506.84	 2400.74
     16.9470	 3040.00	 2935.24	-1490.05	 2403.22
     16.9730	 3031.00	 2939.53	-1503.34	 2405.70
     16.9990	 2975.00	 2943.91	-1563.71	 2408.18
     17.0250	 2998.00	 2948.38	-1545.18	 2410.66
     17.0510	 3047.00	 2952.95	-1500.75	 2413.14
     17.0770	 3062.00	 2957.63	-1490.43	 2415.62
     17.1030	 3027.00	 2962.41	-1530.21	 2418.10
     17.1290	 3031.00	 2967.31	-1531.11	 2420.58
     17.1550	 3102.00	 2972.34	-1465.14	 2423.06
     17.1810	 3077.00	 2977.50	-1495.30	 2425.54
     17.2070	 3012.00	 2982.90	-1565.70	 2428.01
     17.2330	 2985.00	 2988.35	-1598.15	 2430.49
     17.2590	 3049.00	 2993.95	-1539.75	 2432.97
     17.2850	 3091.00	 2999.72	-1503.52	 2435.45
     17.3110	 3002.00	 3005.66	-1598.47	 2437.93
     17.3370	 3085.00	 3011.85	-1521.65	 2440.41
     17.3630	 3020.00	 3018.17	-1592.97	 2442.89
     17.3890	 3021.00	 3024.70	-1598.51	 2445.37
     17.4150	 3088.00	 3031.45	-1538.25	 2447.85
     17.4410	 3081.00	 3038.43	-1552.23	 2450.33
     17.4670	 3044.00	 3045.65	-1596.45	 2452.81
     17.4930	 3057.00	 3053.11	-1590.91	 2455.29
     17.5190	 3135.00	 3060.84	-1520.64	 2457.77
     17.5450	 3093.00	 3068.83	-1570.63	 2460.25
     17.5710	 3096.00	 3077.10	-1575.90	 2462.73
     17.5970	 3080.00	 3085.66	-1600.46	 2465.21
     17.6230	 3163.00	 3094.51	-1526.31	 2467.68
     17.6490	 3101.00	 3103.65	-1597.45	 2470.16
     17.6750	 3012.00	 3113.08	-1695.89	 2472.64
     17.7010	 3062.00	 3122.81	-1655.61	 2475.12
     17.7270	 3075.00	 3132.82	-1652.62	 2477.60
     17.7530	 3150.00	 3143.09	-1587.89	 2480.08
     17.7790	 3061.00	 3153.61	-1687.41	 2482.56
     17.8050	 3014.00	 3164.35	-1745.15	 2485.04
     17.8310	 3092.00	 3175.26	-1678.07	 2487.52
     17.8570	 3134.00	 3186.32	-1647.12	 2490.00
     17.8830	 3041.00	 3197.44	-1751.24	 2492.48
     17.9090	 3107.00	 3208.57	-1696.37	 2494.96
     17.9350	 3076.00	 3219.63	-1738.43	 2497.44
     17.9610	 3056.00	 3230.52	-1769.32	 2499.92
     17.9870	 3030.00	 3241.14	-1805.94	 2502.40
     18.0130	 3002.00	 3251.39	-1844.19	 2504.87
     18.0390	 3229.00	 3261.13	-1626.93	 2507.35
     18.0650	 3146.00	 3270.26	-1719.06	 2509.83
     18.0910	 3129.00	 3278.65	-1744.45	 2512.31
     18.1170	 3058.00	 3286.20	-1823.00	 2514.79
     18.1430	 3052.00	 3292.79	-1835.59	 2517.27
     18.1690	 3090.00	 3298.34	-1803.14	 2519.75
     18.1950	 3057.00	 3302.78	-1840.58	 2522.23
     18.2210	 3110.00	 3306.07	-1790.87	 2524.71
     18.2470	 3151.00	 3308.18	-1751.98	 2527.19
     18.2730	 3093.00	 3309.14	-1810.94	 2529.67
     18.2990	 3046.00	 3308.97	-1857.77	 2532.15
     18.3250	 3015.00	 3307.73	-1887.53	 2534.63
     18.3510	 3017.00	 3305.51	-1883.31	 2537.11
     18.3770	 3050.00	 3302.40	-1847.20	 2539.59
     18.4030	 3040.00	 3298.52	-1853.32	 2542.06
     18.4290	 3067.00	 3293.98	-1821.78	 2544.54
     18.4550	 3152.00	 3288.89	-1731.70	 2547.02
     18.4810	 3161.00	 3283.39	-1717.20	 2549.50
     18.5070	 3056.00	 3277.59	-1816.39	 2551.98
     18.5330	 3100.00	 3271.58	-1766.38	 2554.46
     18.5590	 3027.00	 3265.47	-1833.27	 2556.94
     18.5850	 3098.00	 3259.34	-1756.14	 2559.42
     18.6110	 3091.00	 3253.25	-1757.06	 2561.90
     18.6370	 3115.00	 3247.29	-1727.09	 2564.38
     18.6630	 3149.00	 3241.48	-1687.29	 2566.86
     18.6890	 3138.00	 3235.89	-1692.69	 2569.34
     18.7150	 3087.00	 3230.53	-1738.33	 2571.82
     18.7410	 3062.00	 3225.43	-1758.23	 2574.30
     18.7670	 3124.00	 3220.60	-1691.41	 2576.78
     18.7930	 3075.00	 3216.07	-1735.87	 2579.25
     18.8190	 3100.00	 3211.83	-1706.63	 2581.73
     18.8450	 3137.00	 3207.88	-1665.68	 2584.21
     18.8710	 3125.00	 3204.22	-1674.02	 2586.69
     18.8970	 3114.00	 3200.85	-1681.65	 2589.17
     18.9230	 3087.00	 3197.76	-1705.56	 2591.65
     18.9490	 3168.00	 3194.95	-1621.75	 2594.13
     18.9750	 3118.00	 3192.39	-1669.19	 2596.61
     19.0010	 3130.00	 3190.09	-1654.90	 2599.09
     19.0270	 3137.00	 3188.04	-1645.84	 2601.57
     19.0530	 3078.00	 3186.21	-1703.01	 2604.05
     19.0790	 3016.00	 3184.61	-1763.41	 2606.53
     19.1050	 2995.00	 3183.21	-1783.01	 2609.01
     19.1310	 3054.00	 3182.02	-1722.82	 2611.49
     19.1570	 3053.00	 3181.01	-1722.81	 2613.97
     19.1830	 3127.00	 3180.18	-1647.98	 2616.45
     19.2090	 3157.00	 3179.52	-1617.32	 2618.92
     19.2350	 3106.00	 3179.03	-1667.83	 2621.40
     19.2610	 3082.00	 3178.68	-1691.48	 2623.88
     19.2870	 3090.00	 3178.47	-1683.27	 2626.36
     19.3130	 3094.00	 3178.40	-1679.21	 2628.84
     19.3390	 3123.00	 3178.46	-1650.26	 2631.32
     19.3650	 3148.00	 3178.64	-1625.44	 2633.80
     19.3910	 3127.00	 3178.93	-1646.73	 2636.28
     19.4170	 3136.00	 3179.33	-1638.13	 2638.76
     19.4430	 3098.00	 3179.82	-1676.62	 2641.24
     19.4690	 3039.00	 3180.42	-1736.22	 2643.72
     19.4950	 3034.00	 3181.10	-1741.90	 2646.20
     19.5210	 3018.00	 3181.87	-1758.67	 2648.68
     19.5470	 3085.00	 3182.71	-1692.51	 2651.16
     19.5730	 3159.00	 3183.64	-1619.44	 2653.64
     19.5990	 3152.00	 3184.63	-1627.43	 2656.11
     19.6250	 3139.00	 3185.69	-1641.49	 2658.59
     19.6510	 3157.00	 3186.82	-1624.62	 2661.07
     19.6770	 3182.00	 3188.00	-1600.80	 2663.55
     19.7030	 3112.00	 3189.24	-1672.05	 2666.03
     19.7290	 3104.00	 3190.54	-1681.34	 2668.51
     19.7550	 3120.00	 3191.89	-1666.69	 2670.99
     19.7810	 3178.00	 3193.26	-1610.06	 2673.45
     19.8070	 3150.00	 3194.49	-1639.29	 2675.72
     19.8330	 3093.00	 3195.77	-1697.57	 2677.98
     19.8590	 3136.00	 3197.08	-1655.88	 2680.25
     19.8850	 3210.00	 3198.44	-1583.24	 2682.52
     19.9110	 3208.00	 3199.83	-1586.63	 2684.78
     19.9370	 3167.00	 3201.25	-1629.05	 2687.05
     19.9630	 3223.00	 3202.71	-1574.52	 2689.32
     19.9890	 3215.00	 3204.21	-1584.01	 2691.58
     20.0150	 3202.00	 3205.73	-1598.53	 2693.85
     20.0410	 3178.00	 3207.28	-1624.08	 2696.12
     20.0670	 3160.00	 3208.86	-1643.66	 2698.38
     20.0930	 3224.00	 3210.47	-1581.27	 2700.65
     20.1190	 3267.00	 3212.10	-1539.90	 2702.92
     20.1450	 3238.00	 3213.75	-1570.56	 2705.18
     20.1710	 3192.00	 3215.43	-1618.23	 2707.45
     20.1970	 3211.00	 3217.13	-1600.93	 2709.72
     20.2230	 3212.00	 3218.85	-1601.66	 2711.99
     20.2490	 3153.00	 3220.60	-1662.40	 2714.25
     20.2750	 3133.00	 3222.36	-1684.16	 2716.52
     20.3010	 3140.00	 3224.14	-1678.94	 2718.79
     20.3270	 3157.00	 3225.93	-1663.73	 2721.05
     20.3530	 3209.00	 3227.74	-1613.55	 2723.32
     20.3790	 3199.00	 3229.57	-1625.38	 2725.59
     20.4050	 3320.00	 3231.42	-1506.22	 2727.85
     20.4310	 3252.00	 3233.28	-1576.08	 2730.12
     20.4570	 3290.00	 3235.15	-1539.95	 2732.39
     20.4830	 3356.00	 3237.04	-1475.84	 2734.65
     20.5090	 3144.00	 3238.94	-1689.74	 2736.92
     20.5350	 3292.00	 3240.85	-1543.65	 2739.19
     20.5610	 3185.00	 3242.78	-1652.58	 2741.45
     20.5870	 3238.00	 3244.71	-1601.51	 2743.72
     20.6130	 3281.00	 3246.66	-1560.46	 2745.99
     20.6390	 3371.00	 3248.62	-1472.42	 2748.25
     20.6650	 3316.00	 3250.59	-1529.39	 2750.52
     20.6910	 3164.00	 3252.56	-1683.37	 2752.79
     20.7170	 3333.00	 3254.55	-1516.35	 2755.06
     20.7430	 3367.00	 3256.55	-1484.35	 2757.32
     20.7690	 3300.00	 3258.56	-1553.36	 2759.59
     20.7950	 3242.00	 3260.57	-1613.37	 2761.86
     20.8210	 3256.00	 3262.59	-1601.39	 2764.12
     20.8470	 3231.00	 3264.62	-1628.43	 2766.39
     20.8730	 3257.00	 3266.66	-1604.46	 2768.66
     20.8990	 3321.00	 3268.71	-1542.51	 2770.92
     20.9250	 3208.00	 3270.76	-1657.56	 2773.19
     20.9510	 3373.00	 3272.82	-1494.62	 2775.46
     20.9770	 3213.00	 3274.89	-1656.69	 2777.72
     21.0030	 3259.00	 3276.96	-1612.76	 2779.99
     21.0290	 3276.00	 3279.04	-1597.84	 2782.26
     21.0550	 3159.00	 3281.13	-1716.93	 2784.52
     21.0810	 3268.00	 3283.22	-1610.02	 2786.79
     21.1070	 3326.00	 3285.32	-1554.12	 2789.06
     21.1330	 3313.00	 3287.42	-1569.22	 2791.32
     21.1590	 3310.00	 3289.53	-1574.33	 2793.59
     21.1850	 3189.00	 3291.64	-1697.44	 2795.86
     21.2110	 3348.00	 3293.76	-1540.56	 2798.13
     21.2370	 3277.00	 3295.88	-1613.68	 2800.39
     21.2630	 3305.00	 3298.01	-1587.81	 2802.66
     21.2890	 3363.00	 3300.14	-1531.94	 2804.93
     21.3150	 3375.00	 3302.28	-1522.08	 2807.19
     21.3410	 3380.00	 3304.42	-1519.22	 2809.46
     21.3670	 3311.00	 3306.56	-1590.36	 2811.73
     21.3930	 3291.00	 3308.71	-1612.51	 2813.99
     21.4190	 3299.00	 3310.87	-1606.67	 2816.26
     21.4450	 3310.00	 3313.02	-1597.82	 2818.53
     21.4710	 3276.00	 3315.18	-1633.98	 2820.79
     21.4970	 3360.00	 3317.35	-1552.15	 2823.06
     21.5230	 3322.00	 3319.52	-1592.32	 2825.33
     21.5490	 3403.00	 3321.69	-1513.49	 2827.59
     21.5750	 3404.00	 3323.86	-1514.66	 2829.86
     21.6010	 3379.00	 3326.04	-1541.84	 2832.13
     21.6270	 3384.00	 3328.22	-1539.02	 2834.39
     21.6530	 3388.00	 3330.40	-1537.21	 2836.66
     21.6790	 3346.00	 3332.59	-1581.39	 2838.93
     21.7050	 3388.00	 3334.97	-1541.77	 2841.20
     21.7310	 3370.00	 3337.17	-1561.97	 2843.46
     21.7570	 3374.00	 3339.36	-1560.16	 2845.73
     21.7830	 3354.00	 3342.23	-1583.03	 2848.67
     21.8090	 3324.00	 3345.51	-1616.31	 2852.01
     21.8350	 3356.00	 3348.88	-1587.68	 2855.35
     21.8610	 3402.00	 3352.16	-1544.96	 2858.69
     21.8870	 3389.00	 3355.45	-1561.25	 2862.04
     21.9130	 3373.00	 3358.73	-1580.54	 2865.38
     21.9390	 3425.00	 3362.02	-1531.83	 2868.72
     21.9650	 3436.00	 3365.32	-1524.12	 2872.06
     21.9910	 3393.00	 3368.61	-1570.41	 2875.41
     22.0170	 3413.00	 3371.91	-1553.71	 2878.75
     22.0430	 3483.00	 3375.21	-1487.01	 2882.09
     22.0690	 3505.00	 3378.51	-1468.31	 2885.43
     22.0950	 3432.00	 3381.81	-1544.61	 2888.78
     22.1210	 3394.00	 3385.11	-1585.92	 2892.12
     22.1470	 3439.00	 3388.42	-1544.22	 2895.46
     22.1730	 3414.00	 3391.73	-1572.53	 2898.80
     22.1990	 3414.00	 3395.04	-1575.84	 2902.15
     22.2250	 3434.00	 3398.35	-1559.15	 2905.49
     22.2510	 3400.00	 3401.67	-1596.47	 2908.83
     22.2770	 3448.00	 3404.98	-1551.79	 2912.17
     22.3030	 3425.00	 3408.30	-1578.10	 2915.51
     22.3290	 3367.00	 3411.62	-1639.42	 2918.86
     22.3550	 3405.00	 3414.94	-1604.74	 2922.20
     22.3810	 3461.00	 3418.27	-1552.07	 2925.54
     22.4070	 3487.00	 3421.59	-1529.39	 2928.88
     22.4330	 3463.00	 3424.92	-1556.72	 2932.23
     22.4590	 3451.00	 3428.25	-1572.05	 2935.57
     22.4850	 3406.00	 3431.58	-1620.38	 2938.91
     22.5110	 3543.00	 3434.91	-1486.71	 2942.25
     22.5370	 3467.00	 3438.24	-1566.04	 2945.60
     22.5630	 3502.00	 3441.58	-1534.38	 2948.94
     22.5890	 3539.00	 3444.91	-1500.71	 2952.28
     22.6150	 3466.00	 3448.25	-1577.05	 2955.62
     22.6410	 3324.00	 3451.59	-1722.39	 2958.97
     22.6670	 3427.00	 3454.93	-1622.73	 2962.31
     22.6930	 3510.00	 3458.27	-1543.07	 2965.65
     22.7190	 3556.00	 3461.61	-1500.42	 2968.99
     22.7450	 3486.00	 3464.96	-1573.76	 2972.34
     22.7710	 3460.00	 3468.30	-1603.11	 2975.68
     22.7970	 3548.00	 3471.65	-1518.45	 2979.02
     22.8230	 3457.00	 3475.00	-1612.80	 2982.36
     22.8490	 3556.00	 3478.35	-1517.15	 2985.71
     22.8750	 3532.00	 3481.70	-1544.50	 2989.05
     22.9010	 3521.00	 3485.05	-1558.86	 2992.39
     22.9270	 3527.00	 3488.41	-1556.21	 2995.73
     22.9530	 3516.00	 3491.76	-1570.56	 2999.08
     22.9790	 3468.00	 3495.12	-1621.92	 3002.42
     23.0050	 3508.00	 3498.48	-1585.28	 3005.76
     23.0310	 3540.00	 3500.19	-1555.00	 3007.46
     23.0570	 3465.00	 3500.94	-1630.74	 3008.19
     23.0830	 3424.00	 3501.68	-1672.48	 3008.91
     23.1090	 3569.00	 3502.42	-1528.22	 3009.63
     23.1350	 3550.00	 3503.17	-1547.97	 3010.36
     23.1610	 3564.00	 3503.92	-1534.72	 3011.08
     23.1870	 3545.00	 3504.66	-1554.46	 3011.81
     23.2130	 3610.00	 3505.41	-1490.21	 3012.53
     23.2390	 3605.00	 3506.16	-1495.96	 3013.25
     23.2650	 3534.00	 3506.91	-1567.71	 3013.98
     23.2910	 3510.00	 3507.67	-1592.47	 3014.70
     23.3170	 3570.00	 3508.42	-1533.22	 3015.43
     23.3430	 3567.00	 3509.17	-1536.97	 3016.15
     23.3690	 3534.00	 3509.93	-1570.73	 3016.87
     23.3950	 3525.00	 3510.69	-1580.49	 3017.60
     23.4210	 3588.00	 3511.44	-1518.25	 3018.32
     23.4470	 3551.00	 3512.20	-1556.00	 3019.05
     23.4730	 3583.00	 3512.96	-1524.76	 3019.77
     23.4990	 3668.00	 3513.72	-1440.53	 3020.49
     23.5250	 3602.00	 3514.49	-1507.29	 3021.22
     23.5510	 3589.00	 3515.25	-1521.05	 3021.94
     23.5770	 3558.00	 3516.02	-1552.82	 3022.67
     23.6030	 3495.00	 3516.78	-1616.58	 3023.39
     23.6290	 3653.00	 3517.55	-1459.35	 3024.11
     23.6550	 3521.00	 3518.32	-1592.12	 3024.84
     23.6810	 3456.00	 3519.09	-1657.89	 3025.56
     23.7070	 3536.00	 3519.86	-1578.66	 3026.29
     23.7330	 3661.00	 3520.63	-1454.43	 3027.01
     23.7590	 3672.00	 3521.40	-1444.20	 3027.73
     23.7850	 3601.00	 3522.17	-1515.97	 3028.46
     23.8110	 3665.00	 3522.95	-1452.75	 3029.18
     23.8370	 3626.00	 3523.72	-1492.52	 3029.91
     23.8630	 3584.00	 3524.50	-1535.30	 3030.63
     23.8890	 3627.00	 3525.28	-1493.08	 3031.35
     23.9150	 3564.00	 3526.06	-1556.86	 3032.08
     23.9410	 3622.00	 3526.84	-1499.64	 3032.80
     23.9670	 3677.00	 3527.62	-1445.42	 3033.53
     23.9930	 3642.00	 3528.40	-1481.20	 3034.25
     24.0190	 3631.00	 3529.18	-1492.98	 3034.97
     24.0450	 3681.00	 3529.97	-1443.77	 3035.70
     24.0710	 3606.00	 3530.75	-1519.56	 3036.42
     24.0970	 3637.00	 3531.54	-1489.34	 3037.15
     24.1230	 3647.00	 3532.33	-1480.13	 3037.87
     24.1490	 3664.00	 3533.12	-1463.92	 3038.59
     24.1750	 3633.00	 3533.91	-1495.71	 3039.32
     24.2010	 3700.00	 3534.70	-1429.50	 3040.04
     24.2270	 3658.00	 3535.49	-1472.29	 3040.77
     24.2530	 3582.00	 3536.29	-1549.09	 3041.49
     24.2790	 3637.00	 3537.08	-1494.88	 3042.22
     24.3050	 3604.00	 3537.88	-1528.68	 3042.94
     24.3310	 3627.00	 3538.67	-1506.48	 3043.66
     24.3570	 3610.00	 3539.47	-1524.27	 3044.39
     24.3830	 3547.00	 3540.27	-1588.07	 3045.11
     24.4090	 3591.00	 3541.07	-1544.87	 3045.84
     24.4350	 3597.00	 3541.87	-1539.68	 3046.56
     24.4610	 3620.00	 3542.68	-1517.48	 3047.28
     24.4870	 3619.00	 3543.48	-1519.28	 3048.01
     24.5130	 3605.00	 3544.29	-1534.09	 3048.73
     24.5390	 3647.00	 3545.10	-1492.90	 3049.46
     24.5650	 3656.00	 3545.90	-1484.71	 3050.18
     24.5910	 3667.00	 3546.71	-1474.51	 3050.90
     24.6170	 3614.00	 3547.52	-1528.33	 3051.63
     24.6430	 3581.00	 3548.34	-1562.14	 3052.35
     24.6690	 3615.00	 3549.15	-1528.95	 3053.08
     24.6950	 3598.00	 3549.96	-1546.77	 3053.80
     24.7210	 3564.00	 3550.78	-1581.58	 3054.52
     24.7470	 3589.00	 3551.60	-1557.40	 3055.25
     24.7730	 3586.00	 3552.42	-1561.22	 3055.97
     24.7990	 3580.00	 3553.24	-1568.04	 3056.70
     24.8250	 3632.00	 3554.06	-1516.86	 3057.42
     24.8510	 3589.00	 3554.88	-1560.68	 3058.14
     24.8770	 3617.00	 3555.71	-1533.51	 3058.87
     24.9030	 3659.00	 3556.54	-1492.34	 3059.59
     24.9290	 3613.00	 3557.37	-1539.17	 3060.32
     24.9550	 3626.00	 3558.20	-1527.00	 3061.04
     24.9810	 3644.00	 3559.03	-1509.83	 3061.76
     25.0070	 3603.00	 3559.86	-1551.66	 3062.49
     25.0330	 3580.00	 3560.70	-1575.50	 3063.21
     25.0590	 3625.00	 3561.53	-1531.33	 3063.94
     25.0850	 3695.00	 3562.37	-1462.17	 3064.66
     25.1110	 3716.00	 3563.21	-1442.01	 3065.38
     25.1370	 3708.00	 3564.05	-1450.85	 3066.11
     25.1630	 3696.00	 3564.89	-1463.69	 3066.83
     25.1890	 3713.00	 3565.73	-1447.53	 3067.56
     25.2150	 3734.00	 3566.57	-1427.38	 3068.28
     25.2410	 3614.00	 3567.42	-1548.22	 3069.00
     25.2670	 3614.00	 3568.27	-1549.07	 3069.73
     25.2930	 3686.00	 3568.93	-1477.73	 3070.26
     25.3190	 3698.00	 3569.46	-1466.26	 3070.66
     25.3450	 3685.00	 3569.99	-1479.79	 3071.07
     25.3710	 3626.00	 3570.53	-1539.33	 3071.47
     25.3970	 3713.00	 3571.06	-1452.86	 3071.88
     25.4230	 3612.00	 3571.60	-1554.40	 3072.28
     25.4490	 3635.00	 3572.14	-1531.94	 3072.68
