 DD67    CELL:    8.43929   8.43929   8.43929   90.0000   90.0000   90.0000   SPGR: F d -3 m               TEMP:      0.00
  2   2874     1.54056     1.54439     0.00000     0.00000     0.00000    0
   95   22    0    0    0
 2Theta	Yobs	Ycal	Yobs-Ycal	Backg	Bragg	Posr	(hkl)	K
      5.1690	 5101.00	 5301.86	-1629.14	 4839.59	     18.1918	       0	(  1  1  1)	  0  1
      5.1950	 5130.00	 5277.32	-1575.60	 4815.03	     18.2374	       0	(  1  1  1)	  0  2
      5.2210	 5076.00	 5253.07	-1605.36	 4790.76	     29.9214	       0	(  2  2  0)	  0  1
      5.2470	 5107.00	 5229.11	-1550.39	 4766.77	     29.9974	       0	(  2  2  0)	  0  2
      5.2730	 5104.00	 5205.42	-1529.71	 4743.07	     35.2415	       0	(  3  1  1)	  0  1
      5.2990	 5082.00	 5182.02	-1528.30	 4719.64	     35.3319	       0	(  3  1  1)	  0  2
      5.3250	 5086.00	 5158.88	-1501.16	 4696.49	     36.8636	       0	(  2  2  2)	  0  1
      5.3510	 5042.00	 5136.02	-1522.30	 4673.61	     36.9301	    -357	(  1  1  1)	  0  1
      5.3770	 4999.00	 5113.42	-1542.71	 4650.99	     36.9585	       0	(  2  2  2)	  0  2
      5.4030	 5016.00	 5091.09	-1503.37	 4628.64	     37.0252	    -357	(  1  1  1)	  0  2
      5.4290	 4929.00	 5069.02	-1568.30	 4606.55	     42.8260	       0	(  4  0  0)	  0  1
      5.4550	 5026.00	 5047.21	-1449.49	 4584.72	     42.9043	    -357	(  2  0  0)	  0  1
      5.4810	 4961.00	 5025.65	-1492.93	 4563.13	     42.9377	       0	(  4  0  0)	  0  2
      5.5070	 4991.00	 5004.33	-1441.62	 4541.80	     43.0162	    -357	(  2  0  0)	  0  2
      5.5330	 5058.00	 4983.27	-1353.56	 4520.72	     46.8871	       0	(  3  3  1)	  0  1
      5.5590	 4994.00	 4962.46	-1396.74	 4499.88	     47.0106	       0	(  3  3  1)	  0  2
      5.5850	 4969.00	 4941.88	-1401.16	 4479.29	     53.1206	       0	(  4  2  2)	  0  1
      5.6110	 4815.00	 4921.54	-1534.82	 4458.93	     53.2630	       0	(  4  2  2)	  0  2
      5.6370	 4840.00	 4901.44	-1489.72	 4438.81	     56.6227	       0	(  3  3  3)	  0  1
      5.6630	 4818.00	 4881.57	-1491.85	 4418.92	     56.6227	       0	(  5  1  1)	  0  1
      5.6890	 4781.00	 4861.93	-1509.21	 4399.25	     56.7762	       0	(  3  3  3)	  0  2
      5.7150	 4794.00	 4842.52	-1476.80	 4379.82	     56.7762	       0	(  5  1  1)	  0  2
      5.7410	 4759.00	 4823.33	-1492.61	 4360.61	     62.1704	       0	(  4  4  0)	  0  1
      5.7670	 4820.00	 4804.35	-1412.64	 4341.62	     62.2908	    -357	(  2  2  0)	  0  1
      5.7930	 4767.00	 4785.61	-1446.89	 4322.85	     62.3421	       0	(  4  4  0)	  0  2
      5.8190	 4663.00	 4767.07	-1532.35	 4304.29	     62.4629	    -357	(  2  2  0)	  0  2
      5.8450	 4645.00	 4748.74	-1532.03	 4285.94	     65.3635	       0	(  5  3  1)	  0  1
      5.8710	 4754.00	 4730.63	-1404.91	 4267.81	     65.5462	       0	(  5  3  1)	  0  2
      5.8970	 4897.00	 4712.72	-1244.01	 4249.88	     66.4094	       0	(  4  4  2)	  0  1
      5.9230	 4765.00	 4695.02	-1358.31	 4232.16	     66.5958	       0	(  4  4  2)	  0  2
      5.9490	 4609.00	 4677.52	-1496.80	 4214.63	     70.5153	       0	(  6  2  0)	  0  1
      5.9750	 4642.00	 4660.22	-1446.50	 4197.31	     70.7168	       0	(  6  2  0)	  0  2
      6.0010	 4671.00	 4643.11	-1400.40	 4180.18	     73.5265	       0	(  5  3  3)	  0  1
      6.0270	 4677.00	 4626.20	-1377.48	 4163.25	     73.7394	       0	(  5  3  3)	  0  2
      6.0530	 4696.00	 4609.48	-1341.76	 4146.51	     74.5195	       0	(  6  2  2)	  0  1
      6.0790	 4632.00	 4592.95	-1389.23	 4129.96	     74.6714	    -357	(  3  1  1)	  0  1
      6.1050	 4616.00	 4576.61	-1388.89	 4113.59	     74.7363	       0	(  6  2  2)	  0  2
      6.1310	 4566.00	 4560.45	-1422.73	 4097.41	     74.8888	    -357	(  3  1  1)	  0  2
      6.1570	 4541.00	 4544.47	-1431.75	 4081.41	     78.4475	       0	(  4  4  4)	  0  1
      6.1830	 4542.00	 4528.67	-1414.95	 4065.59	     78.6105	    -357	(  2  2  2)	  0  1
      6.2090	 4546.00	 4513.04	-1395.33	 4049.94	     78.6801	       0	(  4  4  4)	  0  2
      6.2350	 4535.00	 4497.60	-1390.88	 4034.47	     78.8438	    -357	(  2  2  2)	  0  2
      6.2610	 4482.00	 4482.32	-1428.60	 4019.18	     81.3567	       0	(  5  5  1)	  0  1
      6.2870	 4456.00	 4467.22	-1439.50	 4004.05	     81.3567	       0	(  7  1  1)	  0  1
      6.3130	 4520.00	 4452.28	-1360.56	 3989.09	     81.6017	       0	(  5  5  1)	  0  2
      6.3390	 4529.00	 4437.51	-1336.79	 3974.29	     81.6017	       0	(  7  1  1)	  0  2
      6.3650	 4555.00	 4422.90	-1296.18	 3959.66	     86.1597	       0	(  6  4  2)	  0  1
      6.3910	 4579.00	 4408.45	-1257.73	 3945.20	     86.4262	       0	(  6  4  2)	  0  2
      6.4170	 4486.00	 4394.16	-1336.45	 3930.88	     89.0263	       0	(  5  5  3)	  0  1
      6.4430	 4441.00	 4380.03	-1367.32	 3916.73	     89.0263	       0	(  7  3  1)	  0  1
      6.4690	 4464.00	 4366.06	-1330.34	 3902.73	     89.3066	       0	(  5  5  3)	  0  2
      6.4950	 4503.00	 4352.24	-1277.52	 3888.89	     89.3066	       0	(  7  3  1)	  0  2
      6.5210	 4433.00	 4338.56	-1333.85	 3875.19	     93.8022	       0	(  8  0  0)	  0  1
      6.5470	 4322.00	 4325.04	-1431.32	 3861.65	     94.0157	    -357	(  4  0  0)	  0  1
      6.5730	 4241.00	 4311.66	-1498.95	 3848.25	     94.1070	       0	(  8  0  0)	  0  2
      6.5990	 4293.00	 4298.43	-1433.72	 3835.00	     94.3216	    -357	(  4  0  0)	  0  2
      6.6250	 4436.00	 4285.35	-1277.63	 3821.89	     96.6784	       0	(  7  3  3)	  0  1
      6.6510	 4439.00	 4272.40	-1261.68	 3808.92	     96.9989	       0	(  7  3  3)	  0  2
      6.6770	 4377.00	 4259.59	-1310.87	 3796.09	     97.6405	       0	(  6  4  4)	  0  1
      6.7030	 4313.00	 4246.92	-1362.20	 3783.39	     97.9665	       0	(  6  4  4)	  0  2
      6.7290	 4371.00	 4234.39	-1291.67	 3770.83	    101.5137	       0	(  6  6  0)	  0  1
      6.7550	 4362.00	 4221.99	-1288.27	 3758.41	    101.5137	       0	(  8  2  2)	  0  1
      6.7810	 4311.00	 4209.71	-1327.00	 3746.12	    101.8629	       0	(  6  6  0)	  0  2
      6.8070	 4202.00	 4197.58	-1423.86	 3733.96	    101.8629	       0	(  8  2  2)	  0  2
      6.8330	 4254.00	 4185.57	-1359.85	 3721.92	    104.4530	       0	(  5  5  5)	  0  1
      6.8590	 4261.00	 4173.68	-1340.97	 3710.01	    104.4530	       0	(  7  5  1)	  0  1
      6.8850	 4275.00	 4161.93	-1315.21	 3698.23	    104.8212	       0	(  5  5  5)	  0  2
      6.9110	 4198.00	 4150.29	-1380.57	 3686.57	    104.8212	       0	(  7  5  1)	  0  2
      6.9370	 4094.00	 4138.78	-1473.06	 3675.04	    105.4410	       0	(  6  6  2)	  0  1
      6.9630	 4026.00	 4127.38	-1529.66	 3663.62	    105.7036	    -357	(  3  3  1)	  0  1
      6.9890	 4115.00	 4116.11	-1429.39	 3652.32	    105.8159	       0	(  6  6  2)	  0  2
      7.0150	 4173.00	 4104.95	-1360.23	 3641.14	    106.0803	    -357	(  3  3  1)	  0  2
      7.0410	 4201.00	 4093.91	-1321.19	 3630.07	    109.4443	       0	(  8  4  0)	  0  1
      7.0670	 4112.00	 4082.98	-1399.26	 3619.12	    109.7270	    -357	(  4  2  0)	  0  1
      7.0930	 4024.00	 4072.16	-1476.44	 3608.28	    109.8478	       0	(  8  4  0)	  0  2
      7.1190	 4152.00	 4061.45	-1337.73	 3597.54	    110.1326	    -357	(  4  2  0)	  0  2
      7.1450	 4196.00	 4050.85	-1283.14	 3586.92	    112.5118	       0	(  7  5  3)	  0  1
      7.1710	 4148.00	 4040.36	-1320.65	 3576.41	    112.5119	       0	(  9  1  1)	  0  1
      7.1970	 4119.00	 4029.98	-1339.26	 3566.00	    112.9393	       0	(  7  5  3)	  0  2
      7.2230	 4095.00	 4019.70	-1352.98	 3555.70	    112.9393	       0	(  9  1  1)	  0  2
      7.2490	 4038.00	 4009.53	-1399.81	 3545.50	    113.5491	       0	(  8  4  2)	  0  1
      7.2750	 4036.00	 3999.45	-1391.73	 3535.40	    113.9851	       0	(  8  4  2)	  0  2
      7.3010	 4046.00	 3989.48	-1371.76	 3525.40	    117.7866	       0	(  6  6  4)	  0  1
      7.3270	 4046.00	 3979.60	-1361.89	 3515.50	    118.2601	       0	(  6  6  4)	  0  2
      7.3530	 4028.00	 3969.83	-1370.11	 3505.70	    121.0753	       0	(  9  3  1)	  0  1
      7.3790	 4048.00	 3960.15	-1340.43	 3495.99	    121.5813	       0	(  9  3  1)	  0  2
      7.4050	 3979.00	 3950.56	-1399.85	 3486.38	    126.8319	       0	(  8  4  4)	  0  1
      7.4310	 3972.00	 3941.07	-1397.35	 3476.87	    127.2321	    -357	(  4  2  2)	  0  1
      7.4570	 3876.00	 3931.67	-1483.96	 3467.45	    127.4037	       0	(  8  4  4)	  0  2
      7.4830	 3927.00	 3922.37	-1423.65	 3458.11	    127.8091	    -357	(  4  2  2)	  0  2
      7.5090	 3954.00	 3913.15	-1387.43	 3448.87	    130.5004	       0	(  7  5  5)	  0  1
      7.5350	 3918.00	 3904.02	-1414.31	 3439.72	    130.5004	       0	(  7  7  1)	  0  1
      7.5610	 3856.00	 3894.98	-1467.27	 3430.65	    130.5004	       0	(  9  3  3)	  0  1
      7.5870	 3952.00	 3886.03	-1362.31	 3421.67	    131.1216	       0	(  7  5  5)	  0  2
      7.6130	 3901.00	 3877.16	-1404.44	 3412.78	    131.1216	       0	(  7  7  1)	  0  2
      7.6390	 3898.00	 3868.38	-1398.66	 3403.97	    131.1216	       0	(  9  3  3)	  0  2
      7.6650	 4024.00	 3859.68	-1263.96	 3395.24	    137.1181	       0	( 10  2  0)	  0  1
      7.6910	 3978.00	 3851.06	-1301.34	 3386.60	    137.1181	       0	(  8  6  2)	  0  1
      7.7170	 3904.00	 3842.52	-1366.80	 3378.04	    137.8491	       0	( 10  2  0)	  0  2
      7.7430	 3947.00	 3834.06	-1315.35	 3369.55	    137.8491	       0	(  8  6  2)	  0  2
      7.7690	 3905.00	 3825.68	-1348.96	 3361.15	    141.5123	       0	(  7  7  3)	  0  1
      7.7950	 3823.00	 3817.38	-1422.66	 3352.82	    141.5123	       0	(  9  5  1)	  0  1
      7.8210	 3888.00	 3809.16	-1349.44	 3344.57	    142.3364	       0	(  7  7  3)	  0  2
      7.8470	 3788.00	 3801.01	-1441.29	 3336.39	    142.3365	       0	(  9  5  1)	  0  2
      7.8730	 3874.00	 3792.93	-1347.21	 3328.29	    143.0731	       0	(  6  6  6)	  0  1
      7.8990	 3837.00	 3784.93	-1376.21	 3320.26	    143.0731	       0	( 10  2  2)	  0  1
      7.9250	 3949.00	 3777.00	-1256.28	 3312.31	    143.6757	    -357	(  3  3  3)	  0  1
      7.9510	 3735.00	 3769.14	-1462.43	 3304.42	    143.6757	    -357	(  5  1  1)	  0  1
      7.9770	 3807.00	 3761.35	-1382.64	 3296.61	    143.9357	       0	(  6  6  6)	  0  2
      8.0030	 3799.00	 3753.64	-1382.92	 3288.86	    143.9356	       0	( 10  2  2)	  0  2
      8.0290	 3751.00	 3745.99	-1423.27	 3281.19	    144.5539	    -357	(  3  3  3)	  0  2
      8.0550	 3635.00	 3738.41	-1531.69	 3273.58	    144.5539	    -357	(  5  1  1)	  0  2
      8.0810	 3704.00	 3730.90	-1455.18	 3266.04	    156.3526	       0	(  9  5  3)	  0  1
      8.1070	 3683.00	 3723.45	-1468.73	 3258.57	    157.7537	       0	(  9  5  3)	  0  2
      8.1330	 3624.00	 3716.07	-1520.35	 3251.16	    158.8585	       0	(  8  6  4)	  0  1
      8.1590	 3658.00	 3708.75	-1479.03	 3243.81	    160.4430	       0	(  8  6  4)	  0  2
      8.1850	 3634.00	 3701.49	-1495.77	 3236.53	    177.9129	       0	( 10  4  2)	  0  1
      8.2110	 3732.00	 3694.30	-1390.58	 3229.31
      8.2370	 3660.00	 3687.17	-1455.45	 3222.15
      8.2630	 3705.00	 3680.10	-1403.38	 3215.06
      8.2890	 3691.00	 3673.09	-1410.37	 3208.02
      8.3150	 3636.00	 3666.14	-1458.43	 3201.04
      8.3410	 3585.00	 3659.25	-1502.53	 3194.12
      8.3670	 3614.00	 3652.42	-1466.70	 3187.26
      8.3930	 3660.00	 3645.64	-1413.93	 3180.46
      8.4190	 3674.00	 3638.92	-1393.21	 3173.71
      8.4450	 3631.00	 3632.26	-1429.54	 3167.02
      8.4710	 3529.00	 3625.65	-1524.93	 3160.38
      8.4970	 3601.00	 3619.10	-1446.38	 3153.80
      8.5230	 3638.00	 3612.60	-1402.88	 3147.27
      8.5490	 3657.00	 3606.15	-1377.43	 3140.80
      8.5750	 3660.00	 3599.75	-1368.04	 3134.37
      8.6010	 3620.00	 3593.41	-1401.69	 3128.00
      8.6270	 3664.00	 3587.12	-1351.40	 3121.68
      8.6530	 3608.00	 3580.87	-1401.16	 3115.41
      8.6790	 3541.00	 3574.68	-1461.96	 3109.18
      8.7050	 3531.00	 3568.54	-1465.82	 3103.01
      8.7310	 3498.00	 3562.44	-1492.72	 3096.89
      8.7570	 3577.00	 3556.39	-1407.68	 3090.81
      8.7830	 3610.00	 3550.39	-1368.68	 3084.78
      8.8090	 3557.00	 3544.44	-1415.72	 3078.80
      8.8350	 3457.00	 3538.53	-1509.82	 3072.86
      8.8610	 3526.00	 3532.67	-1434.95	 3066.97
      8.8870	 3580.00	 3526.85	-1375.14	 3061.12
      8.9130	 3526.00	 3521.08	-1423.37	 3055.32
      8.9390	 3497.00	 3515.36	-1446.64	 3049.56
      8.9650	 3506.00	 3509.67	-1431.95	 3043.85
      8.9910	 3507.00	 3504.03	-1425.31	 3038.18
      9.0170	 3478.00	 3498.43	-1448.71	 3032.55
      9.0430	 3482.00	 3492.87	-1439.16	 3026.96
      9.0690	 3464.00	 3487.36	-1451.64	 3021.42
      9.0950	 3453.00	 3481.88	-1457.17	 3015.91
      9.1210	 3458.00	 3476.45	-1446.73	 3010.45
      9.1470	 3472.00	 3471.05	-1427.34	 3005.02
      9.1730	 3421.00	 3465.70	-1472.98	 2999.64
      9.1990	 3376.00	 3460.39	-1512.67	 2994.29
      9.2250	 3405.00	 3455.11	-1478.39	 2988.98
      9.2510	 3484.00	 3449.87	-1394.16	 2983.72
      9.2770	 3463.00	 3444.67	-1409.96	 2978.48
      9.3030	 3377.00	 3439.51	-1490.79	 2973.29
      9.3290	 3393.00	 3434.39	-1469.67	 2968.14
      9.3550	 3332.00	 3429.30	-1525.58	 2963.02
      9.3810	 3366.00	 3424.25	-1486.53	 2957.93
      9.4070	 3344.00	 3419.23	-1503.51	 2952.89
      9.4330	 3492.00	 3414.25	-1350.53	 2947.87
      9.4590	 3605.00	 3409.31	-1232.59	 2942.90
      9.4850	 3555.00	 3404.40	-1277.68	 2937.96
      9.5110	 3439.00	 3399.52	-1388.81	 2933.05
      9.5370	 3313.00	 3394.68	-1509.96	 2928.18
      9.5630	 3292.00	 3389.88	-1526.16	 2923.34
      9.5890	 3281.00	 3385.10	-1532.38	 2918.53
      9.6150	 3294.00	 3380.36	-1514.64	 2913.76
      9.6410	 3294.00	 3375.66	-1509.94	 2909.02
      9.6670	 3249.00	 3370.98	-1550.26	 2904.31
      9.6930	 3201.00	 3366.34	-1593.62	 2899.64
      9.7190	 3252.00	 3361.73	-1538.01	 2895.00
      9.7450	 3255.00	 3357.15	-1530.43	 2890.38
      9.7710	 3424.00	 3352.60	-1356.89	 2885.80
      9.7970	 3216.00	 3348.09	-1560.37	 2881.25
      9.8230	 3260.00	 3343.60	-1511.89	 2876.74
      9.8490	 3264.00	 3339.15	-1503.43	 2872.25
      9.8750	 3284.00	 3334.73	-1479.01	 2867.79
      9.9010	 3334.00	 3330.33	-1424.62	 2863.37
      9.9270	 3200.00	 3325.97	-1554.25	 2858.97
      9.9530	 3222.00	 3321.64	-1527.92	 2854.60
      9.9790	 3193.00	 3317.33	-1552.62	 2850.26
     10.0050	 3331.00	 3313.06	-1410.34	 2845.96
     10.0310	 3084.00	 3308.81	-1653.10	 2841.67
     10.0570	 3230.00	 3304.60	-1502.88	 2837.42
     10.0830	 3176.00	 3300.41	-1552.69	 2833.20
     10.1090	 3241.00	 3296.25	-1483.53	 2829.01
     10.1350	 3230.00	 3292.12	-1490.40	 2824.84
     10.1610	 3210.00	 3288.01	-1506.30	 2820.70
     10.1870	 3163.00	 3283.94	-1549.22	 2816.59
     10.2130	 3196.00	 3279.89	-1512.17	 2812.51
     10.2390	 3167.00	 3275.86	-1537.15	 2808.45
     10.2650	 3237.00	 3271.87	-1463.15	 2804.42
     10.2910	 3125.00	 3267.90	-1571.19	 2800.42
     10.3170	 3188.00	 3263.96	-1504.25	 2796.44
     10.3430	 3139.00	 3260.05	-1549.33	 2792.49
     10.3690	 3116.00	 3256.16	-1568.45	 2788.57
     10.3950	 3037.00	 3252.30	-1643.59	 2784.67
     10.4210	 3085.00	 3248.47	-1591.75	 2780.80
     10.4470	 3252.00	 3244.66	-1420.94	 2776.96
     10.4730	 3074.00	 3240.88	-1595.16	 2773.14
     10.4990	 3161.00	 3237.12	-1504.40	 2769.34
     10.5250	 3148.00	 3233.39	-1513.67	 2765.58
     10.5510	 3080.00	 3229.68	-1577.97	 2761.83
     10.5770	 3137.00	 3226.00	-1517.29	 2758.12
     10.6030	 3192.00	 3222.35	-1458.63	 2754.43
     10.6290	 3097.00	 3218.72	-1550.00	 2750.76
     10.6550	 3155.00	 3215.11	-1488.40	 2747.12
     10.6810	 3061.00	 3211.53	-1578.82	 2743.50
     10.7070	 3039.00	 3207.98	-1597.26	 2739.90
     10.7330	 3196.00	 3204.45	-1436.73	 2736.34
     10.7590	 3191.00	 3200.94	-1438.22	 2732.79
     10.7850	 3189.00	 3197.46	-1436.74	 2729.27
     10.8110	 3215.00	 3194.00	-1407.28	 2725.78
     10.8370	 3199.00	 3190.57	-1419.85	 2722.30
     10.8630	 3091.00	 3187.16	-1524.44	 2718.86
     10.8890	 3093.00	 3183.77	-1519.06	 2715.43
     10.9150	 3106.00	 3180.41	-1502.69	 2712.03
     10.9410	 3097.00	 3177.07	-1508.36	 2708.66
     10.9670	 3052.00	 3173.76	-1550.04	 2705.30
     10.9930	 3099.00	 3170.47	-1499.75	 2701.98
     11.0190	 3131.00	 3167.20	-1464.49	 2698.67
     11.0450	 3160.00	 3163.96	-1432.24	 2695.39
     11.0710	 3150.00	 3160.74	-1439.02	 2692.13
     11.0970	 3212.00	 3157.54	-1373.83	 2688.89
     11.1230	 3186.00	 3154.37	-1396.65	 2685.68
     11.1490	 3173.00	 3151.22	-1406.51	 2682.49
     11.1750	 3136.00	 3148.10	-1440.38	 2679.32
     11.2010	 3048.00	 3144.99	-1525.28	 2676.18
     11.2270	 3063.00	 3141.91	-1507.19	 2673.06
     11.2530	 3070.00	 3138.85	-1497.14	 2669.96
     11.2790	 3056.00	 3135.82	-1508.10	 2666.89
     11.3050	 3111.00	 3132.81	-1450.09	 2663.83
     11.3310	 3124.00	 3129.82	-1434.10	 2660.81
     11.3570	 3084.00	 3126.86	-1471.14	 2657.80
     11.3830	 3106.00	 3123.91	-1446.20	 2654.81
     11.4090	 3154.00	 3120.99	-1395.27	 2651.85
     11.4350	 3099.00	 3118.09	-1447.38	 2648.91
     11.4610	 3058.00	 3115.22	-1485.50	 2646.00
     11.4870	 3112.00	 3112.37	-1428.65	 2643.10
     11.5130	 3151.00	 3109.54	-1386.82	 2640.23
     11.5390	 3143.00	 3106.73	-1392.01	 2637.38
     11.5650	 3149.00	 3103.95	-1383.23	 2634.55
     11.5910	 3142.00	 3101.18	-1387.47	 2631.75
     11.6170	 3085.00	 3098.44	-1441.73	 2628.97
     11.6430	 3074.00	 3095.73	-1450.01	 2626.21
     11.6690	 3090.00	 3093.03	-1431.31	 2623.47
     11.6950	 3100.00	 3090.36	-1418.64	 2620.75
     11.7210	 3152.00	 3087.71	-1363.99	 2618.06
     11.7470	 3174.00	 3085.08	-1339.36	 2615.39
     11.7730	 3147.00	 3082.47	-1363.76	 2612.74
     11.7990	 3154.00	 3079.89	-1354.17	 2610.11
     11.8250	 3147.00	 3077.33	-1358.61	 2607.50
     11.8510	 3110.00	 3074.79	-1393.07	 2604.92
     11.8770	 3110.00	 3072.27	-1390.55	 2602.36
     11.9030	 3108.00	 3069.78	-1390.06	 2599.82
     11.9290	 3102.00	 3067.30	-1393.59	 2597.30
     11.9550	 3031.00	 3064.85	-1462.14	 2594.81
     11.9810	 3071.00	 3062.42	-1419.71	 2592.33
     12.0070	 3092.00	 3060.02	-1396.30	 2589.88
     12.0330	 3049.00	 3057.63	-1436.92	 2587.45
     12.0590	 3089.00	 3055.27	-1394.55	 2585.04
     12.0850	 3078.00	 3052.93	-1403.21	 2582.66
     12.1110	 3135.00	 3050.61	-1343.90	 2580.29
     12.1370	 3130.00	 3048.32	-1346.60	 2577.95
     12.1630	 3067.00	 3046.04	-1407.33	 2575.63
     12.1890	 3094.00	 3043.79	-1378.08	 2573.33
     12.2150	 3077.00	 3041.56	-1392.85	 2571.06
     12.2410	 3120.00	 3039.36	-1347.64	 2568.80
     12.2670	 3100.00	 3037.17	-1365.45	 2566.57
     12.2930	 3083.00	 3035.01	-1380.29	 2564.36
     12.3190	 3078.00	 3032.86	-1383.15	 2562.17
     12.3450	 3072.00	 3030.75	-1387.03	 2560.00
     12.3710	 3080.00	 3028.65	-1376.93	 2557.86
     12.3970	 3129.00	 3026.57	-1325.86	 2555.73
     12.4230	 3039.00	 3024.52	-1413.80	 2553.63
     12.4490	 3064.00	 3022.49	-1386.77	 2551.55
     12.4750	 3060.00	 3020.48	-1388.76	 2549.49
     12.5010	 3155.00	 3018.49	-1291.78	 2547.46
     12.5270	 2937.00	 3016.53	-1507.81	 2545.45
     12.5530	 3033.00	 3014.58	-1409.87	 2543.45
     12.5790	 3010.00	 3012.66	-1430.95	 2541.48
     12.6050	 3048.00	 3010.76	-1391.05	 2539.53
     12.6310	 3027.00	 3008.89	-1410.17	 2537.61
     12.6570	 3114.00	 3007.03	-1321.32	 2535.70
     12.6830	 2904.00	 3005.20	-1529.48	 2533.82
     12.7090	 3028.00	 3003.39	-1403.67	 2531.96
     12.7350	 3048.00	 3001.60	-1381.88	 2530.12
     12.7610	 3084.00	 2999.83	-1344.12	 2528.30
     12.7870	 2990.00	 2998.09	-1436.37	 2526.50
     12.8130	 3118.00	 2996.37	-1306.65	 2524.73
     12.8390	 2962.00	 2994.67	-1460.95	 2522.98
     12.8650	 3073.00	 2992.99	-1348.27	 2521.25
     12.8910	 3045.00	 2991.33	-1374.62	 2519.54
     12.9170	 3016.00	 2989.70	-1401.98	 2517.85
     12.9430	 3029.00	 2988.09	-1387.37	 2516.19
     12.9690	 3112.00	 2986.50	-1302.78	 2514.55
     12.9950	 3025.00	 2984.93	-1388.21	 2512.93
     13.0210	 3037.00	 2983.38	-1374.67	 2511.33
     13.0470	 3123.00	 2981.86	-1287.14	 2509.75
