 AH11    CELL:    8.39442   8.39442   8.39442   90.0000   90.0000   90.0000   SPGR: F d -3 m               TEMP:      0.00
  1   2495     1.54056     1.54443     0.00000     0.00000     0.00000    0
    32     0     0
 2Theta	Yobs	Ycal	Yobs-Ycal	Backg	Posr	(hkl)	K
     15.0230	 2614.00	 2677.38	-1338.38	 2339.11
     15.0490	 2693.00	 2674.22	-1256.22	 2335.66
     15.0750	 2689.00	 2671.25	-1257.25	 2332.39
     15.1010	 2630.00	 2668.47	-1313.47	 2329.32
     15.1270	 2704.00	 2665.92	-1236.92	 2326.43
     15.1530	 2679.00	 2663.52	-1259.52	 2323.71
     15.1790	 2604.00	 2661.31	-1332.31	 2321.18
     15.2050	 2722.00	 2659.28	-1212.28	 2318.83
     15.2310	 2679.00	 2657.44	-1253.44	 2316.64
     15.2570	 2696.00	 2655.77	-1234.77	 2314.63
     15.2830	 2660.00	 2654.27	-1269.27	 2312.78
     15.3090	 2715.00	 2652.95	-1212.95	 2311.10
     15.3350	 2649.00	 2651.80	-1277.80	 2309.59
     15.3610	 2737.00	 2650.82	-1188.82	 2308.23
     15.3870	 2628.00	 2650.01	-1297.01	 2307.03
     15.4130	 2614.00	 2649.36	-1310.36	 2305.98
     15.4390	 2686.00	 2648.87	-1237.87	 2305.09
     15.4650	 2622.00	 2648.54	-1301.54	 2304.34
     15.4910	 2557.00	 2648.36	-1366.36	 2303.75
     15.5170	 2668.00	 2648.34	-1255.34	 2303.29
     15.5430	 2630.00	 2648.48	-1293.48	 2302.98
     15.5690	 2600.00	 2648.77	-1323.77	 2302.81
     15.5950	 2649.00	 2649.20	-1275.20	 2302.78
     15.6210	 2625.00	 2649.78	-1299.78	 2302.89
     15.6470	 2647.00	 2650.51	-1278.51	 2303.12
     15.6730	 2662.00	 2651.38	-1264.38	 2303.49
     15.6990	 2657.00	 2652.39	-1270.39	 2303.98
     15.7250	 2639.00	 2653.55	-1289.55	 2304.60
     15.7510	 2698.00	 2654.84	-1231.84	 2305.35
     15.7770	 2695.00	 2656.26	-1236.26	 2306.21
     15.8030	 2626.00	 2657.83	-1306.83	 2307.20
     15.8290	 2589.00	 2659.52	-1345.52	 2308.30
     15.8550	 2653.00	 2661.34	-1283.34	 2309.52
     15.8810	 2611.00	 2663.30	-1327.30	 2310.85
     15.9070	 2578.00	 2665.39	-1362.39	 2312.29
     15.9330	 2556.00	 2667.60	-1386.60	 2313.84
     15.9590	 2709.00	 2669.93	-1235.93	 2315.50
     15.9850	 2744.00	 2672.40	-1203.40	 2317.27
     16.0110	 2716.00	 2674.98	-1233.98	 2319.13
     16.0370	 2665.00	 2677.69	-1287.69	 2321.10
     16.0630	 2727.00	 2680.52	-1228.52	 2323.16
     16.0890	 2687.00	 2683.46	-1271.46	 2325.33
     16.1150	 2738.00	 2686.53	-1223.53	 2327.59
     16.1410	 2709.00	 2689.72	-1255.72	 2329.94
     16.1670	 2738.00	 2693.02	-1230.02	 2332.38
     16.1930	 2678.00	 2696.44	-1293.44	 2334.91
     16.2190	 2711.00	 2699.97	-1263.97	 2337.53
     16.2450	 2634.00	 2703.62	-1344.62	 2340.24
     16.2710	 2690.00	 2707.38	-1292.38	 2343.03
     16.2970	 2766.00	 2711.26	-1220.26	 2345.91
     16.3230	 2770.00	 2715.25	-1220.25	 2348.86
     16.3490	 2768.00	 2719.36	-1226.36	 2351.89
     16.3750	 2773.00	 2723.57	-1225.57	 2355.00
     16.4010	 2674.00	 2727.90	-1328.90	 2358.19
     16.4270	 2712.00	 2732.34	-1295.34	 2361.45
     16.4530	 2771.00	 2736.90	-1240.90	 2364.78
     16.4790	 2677.00	 2741.57	-1339.57	 2368.19
     16.5050	 2639.00	 2746.35	-1382.35	 2371.66
     16.5310	 2746.00	 2751.24	-1280.24	 2375.20
     16.5570	 2762.00	 2756.25	-1269.25	 2378.81
     16.5830	 2678.00	 2761.37	-1358.37	 2382.48
     16.6090	 2700.00	 2766.61	-1341.61	 2386.21
     16.6350	 2780.00	 2771.97	-1266.97	 2390.01
     16.6610	 2786.00	 2777.44	-1266.44	 2393.86
     16.6870	 2798.00	 2783.03	-1260.03	 2397.78
     16.7130	 2816.00	 2788.74	-1247.74	 2401.75
     16.7390	 2840.00	 2794.57	-1229.57	 2405.78
     16.7650	 2801.00	 2800.52	-1274.52	 2409.86
     16.7910	 2776.00	 2806.60	-1305.60	 2413.99
     16.8170	 2845.00	 2812.81	-1242.81	 2418.18
     16.8430	 2875.00	 2819.14	-1219.14	 2422.41
     16.8690	 2853.00	 2825.60	-1247.60	 2426.70
     16.8950	 2839.00	 2832.20	-1268.20	 2431.03
     16.9210	 2833.00	 2838.94	-1280.94	 2435.41
     16.9470	 2833.00	 2845.81	-1287.81	 2439.83
     16.9730	 2915.00	 2852.83	-1212.83	 2444.30
     16.9990	 2961.00	 2859.99	-1173.99	 2448.81
     17.0250	 2921.00	 2867.30	-1221.30	 2453.36
     17.0510	 2877.00	 2874.76	-1272.76	 2457.95
     17.0770	 2849.00	 2882.38	-1308.38	 2462.58
     17.1030	 2852.00	 2890.16	-1313.16	 2467.24
     17.1290	 2819.00	 2898.11	-1354.11	 2471.94
     17.1550	 2894.00	 2906.23	-1287.23	 2476.68
     17.1810	 2906.00	 2914.52	-1283.52	 2481.45
     17.2070	 2922.00	 2922.99	-1275.99	 2486.25
     17.2330	 2913.00	 2931.65	-1293.65	 2491.09
     17.2590	 2894.00	 2940.49	-1321.49	 2495.95
     17.2850	 2906.00	 2949.53	-1318.53	 2500.85
     17.3110	 2967.00	 2958.78	-1266.78	 2505.77
     17.3370	 2951.00	 2968.22	-1292.22	 2510.72
     17.3630	 2949.00	 2977.88	-1303.88	 2515.70
     17.3890	 3055.00	 2987.76	-1207.76	 2520.70
     17.4150	 2976.00	 2997.85	-1296.85	 2525.73
     17.4410	 3094.00	 3008.18	-1189.18	 2530.78
     17.4670	 3035.00	 3018.73	-1258.73	 2535.85
     17.4930	 3050.00	 3029.51	-1254.51	 2540.94
     17.5190	 3112.00	 3040.53	-1203.53	 2546.05
     17.5450	 3044.00	 3051.79	-1282.79	 2551.19
     17.5710	 3030.00	 3063.29	-1308.29	 2556.34
     17.5970	 3018.00	 3075.02	-1332.02	 2561.50
     17.6230	 3089.00	 3086.98	-1272.98	 2566.69
     17.6490	 3027.00	 3099.18	-1347.18	 2571.89
     17.6750	 3088.00	 3111.60	-1298.60	 2577.10
     17.7010	 3037.00	 3124.23	-1362.23	 2582.33
     17.7270	 3091.00	 3137.05	-1321.05	 2587.57
     17.7530	 3060.00	 3150.07	-1365.07	 2592.82
     17.7790	 3149.00	 3163.24	-1289.24	 2598.09
     17.8050	 3177.00	 3176.55	-1274.55	 2603.36
     17.8310	 3217.00	 3189.97	-1247.97	 2608.64
     17.8570	 3242.00	 3203.46	-1236.46	 2613.94
     17.8830	 3263.00	 3216.99	-1228.99	 2619.24
     17.9090	 3249.00	 3230.51	-1256.51	 2624.54
     17.9350	 3270.00	 3243.97	-1248.97	 2629.86
     17.9610	 3292.00	 3257.31	-1240.31	 2635.18
     17.9870	 3336.00	 3270.48	-1209.48	 2640.50
     18.0130	 3260.00	 3283.41	-1298.41	 2645.83
     18.0390	 3282.00	 3296.03	-1289.03	 2651.16
     18.0650	 3266.00	 3308.27	-1317.27	 2656.49
     18.0910	 3407.00	 3320.07	-1188.07	 2661.83
     18.1170	 3348.00	 3331.34	-1258.34	 2667.16
     18.1430	 3347.00	 3342.03	-1270.03	 2672.50
     18.1690	 3436.00	 3352.06	-1191.06	 2677.84
     18.1950	 3392.00	 3361.38	-1244.38	 2683.18
     18.2210	 3369.00	 3369.92	-1275.92	 2688.51
     18.2470	 3448.00	 3377.65	-1204.65	 2693.84
     18.2730	 3558.00	 3384.54	-1101.54	 2699.17
     18.2990	 3464.00	 3390.56	-1201.56	 2704.50
     18.3250	 3515.00	 3395.69	-1155.69	 2709.82
     18.3510	 3440.00	 3399.95	-1234.95	 2715.14
     18.3770	 3466.00	 3403.35	-1212.35	 2720.45
     18.4030	 3463.00	 3405.92	-1217.92	 2725.76
     18.4290	 3449.00	 3407.69	-1233.69	 2731.06
     18.4550	 3417.00	 3408.71	-1266.71	 2736.35
     18.4810	 3344.00	 3409.03	-1340.03	 2741.64
     18.5070	 3444.00	 3408.73	-1239.73	 2746.92
     18.5330	 3324.00	 3407.86	-1358.86	 2752.19
     18.5590	 3446.00	 3406.50	-1235.50	 2757.44
     18.5850	 3359.00	 3404.71	-1320.71	 2762.70
     18.6110	 3412.00	 3402.56	-1265.56	 2767.94
     18.6370	 3484.00	 3400.13	-1191.13	 2773.16
     18.6630	 3377.00	 3397.48	-1295.48	 2778.38
     18.6890	 3435.00	 3394.66	-1234.66	 2783.59
     18.7150	 3436.00	 3391.74	-1230.74	 2788.78
     18.7410	 3427.00	 3388.77	-1236.77	 2793.96
     18.7670	 3334.00	 3385.79	-1326.79	 2799.13
     18.7930	 3362.00	 3382.84	-1295.84	 2804.29
     18.8190	 3373.00	 3379.96	-1281.96	 2809.43
     18.8450	 3328.00	 3377.18	-1324.18	 2814.55
     18.8710	 3308.00	 3374.53	-1341.53	 2819.66
     18.8970	 3306.00	 3372.02	-1341.02	 2824.76
     18.9230	 3380.00	 3369.68	-1264.68	 2829.84
     18.9490	 3390.00	 3367.51	-1252.51	 2834.90
     18.9750	 3311.00	 3365.52	-1329.52	 2839.95
     19.0010	 3313.00	 3363.74	-1325.74	 2844.98
     19.0270	 3317.00	 3362.14	-1320.14	 2849.99
     19.0530	 3339.00	 3360.76	-1296.76	 2854.99
     19.0790	 3314.00	 3359.57	-1320.57	 2859.97
     19.1050	 3319.00	 3358.58	-1314.58	 2864.93
     19.1310	 3333.00	 3357.79	-1299.79	 2869.87
     19.1570	 3305.00	 3357.20	-1327.20	 2874.79
     19.1830	 3377.00	 3356.80	-1254.80	 2879.69
     19.2090	 3421.00	 3356.58	-1210.58	 2884.57
     19.2350	 3353.00	 3356.54	-1278.54	 2889.43
     19.2610	 3292.00	 3356.67	-1339.67	 2894.27
     19.2870	 3333.00	 3356.97	-1298.97	 2899.09
     19.3130	 3320.00	 3357.44	-1312.44	 2903.89
     19.3390	 3288.00	 3358.05	-1345.05	 2908.66
     19.3650	 3294.00	 3358.82	-1339.82	 2913.42
     19.3910	 3309.00	 3359.72	-1325.72	 2918.15
     19.4170	 3344.00	 3360.76	-1291.76	 2922.86
     19.4430	 3294.00	 3361.93	-1342.93	 2927.55
     19.4690	 3276.00	 3363.22	-1362.22	 2932.21
     19.4950	 3384.00	 3364.62	-1255.62	 2936.85
     19.5210	 3393.00	 3366.13	-1248.13	 2941.47
     19.5470	 3301.00	 3367.74	-1341.74	 2946.06
     19.5730	 3228.00	 3369.46	-1416.46	 2950.63
     19.5990	 3245.00	 3371.26	-1401.26	 2955.18
     19.6250	 3355.00	 3373.15	-1293.15	 2959.70
     19.6510	 3411.00	 3375.12	-1239.12	 2964.20
     19.6770	 3439.00	 3377.16	-1213.16	 2968.67
     19.7030	 3367.00	 3379.28	-1287.28	 2973.12
     19.7290	 3314.00	 3381.46	-1342.46	 2977.54
     19.7550	 3417.00	 3383.71	-1241.71	 2981.93
     19.7810	 3431.00	 3386.02	-1230.02	 2986.30
     19.8070	 3431.00	 3388.38	-1232.38	 2990.65
     19.8330	 3385.00	 3390.79	-1280.79	 2994.96
     19.8590	 3346.00	 3393.25	-1322.25	 2999.25
     19.8850	 3384.00	 3395.75	-1286.75	 3003.52
     19.9110	 3329.00	 3398.29	-1344.29	 3007.76
     19.9370	 3311.00	 3400.87	-1364.87	 3011.97
     19.9630	 3366.00	 3403.48	-1312.48	 3016.15
     19.9890	 3402.00	 3406.13	-1279.13	 3020.31
     20.0150	 3419.00	 3408.80	-1264.80	 3024.43
     20.0410	 3477.00	 3411.50	-1209.50	 3028.53
     20.0670	 3404.00	 3414.22	-1285.22	 3032.61
     20.0930	 3400.00	 3416.97	-1291.97	 3036.65
     20.1190	 3376.00	 3419.73	-1318.73	 3040.67
     20.1450	 3491.00	 3422.51	-1206.51	 3044.66
     20.1710	 3491.00	 3425.30	-1209.30	 3048.62
     20.1970	 3532.00	 3428.11	-1171.11	 3052.55
     20.2230	 3460.00	 3430.93	-1245.93	 3056.45
     20.2490	 3401.00	 3433.76	-1307.76	 3060.33
     20.2750	 3465.00	 3436.60	-1246.60	 3064.17
     20.3010	 3514.00	 3439.44	-1200.44	 3067.99
     20.3270	 3429.00	 3442.28	-1288.28	 3071.78
     20.3530	 3375.00	 3445.13	-1345.13	 3075.53
     20.3790	 3444.00	 3447.98	-1278.98	 3079.26
     20.4050	 3460.00	 3450.90	-1265.90	 3082.96
     20.4310	 3523.00	 3453.75	-1205.75	 3086.63
     20.4570	 3514.00	 3456.60	-1217.60	 3090.27
     20.4830	 3406.00	 3459.45	-1328.45	 3093.88
     20.5090	 3388.00	 3462.29	-1349.29	 3097.46
     20.5350	 3387.00	 3465.16	-1353.16	 3101.01
     20.5610	 3566.00	 3467.99	-1176.99	 3104.53
     20.5870	 3589.00	 3470.81	-1156.81	 3108.02
     20.6130	 3424.00	 3473.62	-1324.62	 3111.48
     20.6390	 3442.00	 3476.43	-1309.43	 3114.92
     20.6650	 3460.00	 3479.22	-1294.22	 3118.32
     20.6910	 3425.00	 3482.00	-1332.00	 3121.68
     20.7170	 3504.00	 3484.77	-1255.77	 3125.02
     20.7430	 3537.00	 3487.53	-1225.53	 3128.33
     20.7690	 3465.00	 3490.28	-1300.28	 3131.61
     20.7950	 3484.00	 3493.01	-1284.01	 3134.86
     20.8210	 3426.00	 3495.73	-1344.73	 3138.08
     20.8470	 3490.00	 3498.44	-1283.44	 3141.26
     20.8730	 3576.00	 3501.12	-1200.12	 3144.42
     20.8990	 3538.00	 3503.80	-1240.80	 3147.54
     20.9250	 3544.00	 3506.45	-1237.45	 3150.64
     20.9510	 3439.00	 3509.09	-1345.09	 3153.70
     20.9770	 3494.00	 3511.71	-1292.71	 3156.73
     21.0030	 3446.00	 3514.32	-1343.32	 3159.74
     21.0290	 3542.00	 3516.90	-1249.90	 3162.71
     21.0550	 3485.00	 3519.47	-1309.47	 3165.65
     21.0810	 3552.00	 3522.02	-1245.02	 3168.56
     21.1070	 3514.00	 3524.54	-1285.54	 3171.43
     21.1330	 3519.00	 3527.05	-1283.05	 3174.28
     21.1590	 3608.00	 3529.54	-1196.54	 3177.10
     21.1850	 3595.00	 3532.00	-1212.00	 3179.88
     21.2110	 3572.00	 3534.45	-1237.45	 3182.64
     21.2370	 3580.00	 3536.88	-1231.88	 3185.36
     21.2630	 3643.00	 3539.28	-1171.28	 3188.06
     21.2890	 3566.00	 3541.66	-1250.66	 3190.72
     21.3150	 3528.00	 3544.02	-1291.02	 3193.35
     21.3410	 3515.00	 3546.36	-1306.36	 3195.95
     21.3670	 3511.00	 3548.67	-1312.67	 3198.52
     21.3930	 3531.00	 3550.96	-1294.96	 3201.05
     21.4190	 3643.00	 3553.23	-1185.23	 3203.56
     21.4450	 3571.00	 3555.48	-1259.48	 3206.04
     21.4710	 3535.00	 3557.70	-1297.70	 3208.48
     21.4970	 3601.00	 3559.90	-1233.90	 3210.90
     21.5230	 3689.00	 3562.08	-1148.08	 3213.28
     21.5490	 3583.00	 3564.23	-1256.23	 3215.63
     21.5750	 3632.00	 3566.35	-1209.35	 3217.96
     21.6010	 3675.00	 3568.46	-1168.46	 3220.25
     21.6270	 3623.00	 3570.54	-1222.54	 3222.51
     21.6530	 3592.00	 3572.59	-1255.59	 3224.74
     21.6790	 3592.00	 3574.62	-1257.62	 3226.94
     21.7050	 3675.00	 3576.63	-1176.63	 3229.11
     21.7310	 3590.00	 3578.61	-1263.61	 3231.24
     21.7570	 3535.00	 3580.56	-1320.56	 3233.35
     21.7830	 3580.00	 3582.49	-1277.49	 3235.43
     21.8090	 3616.00	 3584.40	-1243.40	 3237.47
     21.8350	 3641.00	 3586.28	-1220.28	 3239.49
     21.8610	 3645.00	 3588.14	-1218.14	 3241.48
     21.8870	 3595.00	 3589.97	-1269.97	 3243.43
     21.9130	 3536.00	 3591.77	-1330.77	 3245.36
     21.9390	 3532.00	 3593.55	-1336.55	 3247.25
     21.9650	 3585.00	 3595.31	-1285.31	 3249.12
     21.9910	 3622.00	 3597.04	-1250.04	 3250.95
     22.0170	 3655.00	 3598.74	-1218.74	 3252.76
     22.0430	 3635.00	 3600.42	-1240.42	 3254.53
     22.0690	 3632.00	 3602.07	-1245.07	 3256.27
     22.0950	 3676.00	 3603.70	-1202.70	 3257.99
     22.1210	 3608.00	 3605.30	-1272.30	 3259.67
     22.1470	 3547.00	 3606.87	-1334.87	 3261.33
     22.1730	 3608.00	 3608.42	-1275.42	 3262.95
     22.1990	 3592.00	 3609.95	-1292.95	 3264.55
     22.2250	 3527.00	 3611.45	-1359.45	 3266.12
     22.2510	 3602.00	 3612.92	-1285.92	 3267.65
     22.2770	 3627.00	 3614.36	-1262.36	 3269.16
     22.3030	 3617.00	 3615.79	-1273.79	 3270.64
     22.3290	 3635.00	 3617.18	-1257.18	 3272.09
     22.3550	 3655.00	 3618.55	-1238.55	 3273.50
     22.3810	 3687.00	 3619.90	-1207.90	 3274.90
     22.4070	 3689.00	 3621.22	-1207.22	 3276.26
     22.4330	 3635.00	 3622.51	-1262.51	 3277.59
     22.4590	 3618.00	 3623.78	-1280.78	 3278.89
     22.4850	 3662.00	 3625.02	-1238.02	 3280.16
     22.5110	 3695.00	 3626.24	-1206.24	 3281.41
     22.5370	 3631.00	 3627.43	-1271.43	 3282.63
     22.5630	 3544.00	 3628.59	-1359.59	 3283.81
     22.5890	 3619.00	 3629.73	-1285.73	 3284.97
     22.6150	 3684.00	 3630.85	-1221.85	 3286.10
     22.6410	 3621.00	 3631.94	-1285.94	 3287.21
     22.6670	 3661.00	 3633.00	-1247.00	 3288.28
     22.6930	 3675.00	 3634.04	-1234.04	 3289.33
     22.7190	 3723.00	 3635.06	-1187.06	 3290.35
     22.7450	 3659.00	 3636.05	-1252.05	 3291.34
     22.7710	 3580.00	 3637.01	-1332.01	 3292.30
     22.7970	 3573.00	 3637.95	-1339.95	 3293.23
     22.8230	 3615.00	 3638.87	-1298.87	 3294.14
     22.8490	 3544.00	 3639.75	-1370.75	 3295.02
     22.8750	 3647.00	 3640.62	-1268.62	 3295.87
     22.9010	 3694.00	 3641.46	-1222.46	 3296.69
     22.9270	 3723.00	 3642.27	-1194.27	 3297.49
     22.9530	 3689.00	 3643.07	-1229.07	 3298.26
     22.9790	 3687.00	 3643.83	-1231.83	 3299.00
     23.0050	 3619.00	 3644.57	-1300.57	 3299.71
     23.0310	 3623.00	 3645.29	-1297.29	 3300.40
     23.0570	 3701.00	 3645.98	-1219.98	 3301.06
     23.0830	 3565.00	 3646.65	-1356.65	 3301.69
     23.1090	 3568.00	 3647.30	-1354.30	 3302.30
     23.1350	 3616.00	 3647.92	-1306.92	 3302.88
     23.1610	 3609.00	 3648.51	-1314.51	 3303.43
     23.1870	 3637.00	 3649.09	-1287.09	 3303.96
     23.2130	 3620.00	 3649.64	-1304.64	 3304.46
     23.2390	 3620.00	 3650.16	-1305.16	 3304.94
     23.2650	 3707.00	 3650.66	-1218.66	 3305.38
     23.2910	 3739.00	 3651.14	-1187.14	 3305.81
     23.3170	 3734.00	 3651.60	-1192.60	 3306.20
     23.3430	 3594.00	 3652.03	-1333.03	 3306.57
     23.3690	 3543.00	 3652.44	-1384.44	 3306.92
     23.3950	 3602.00	 3652.82	-1325.82	 3307.23
     23.4210	 3498.00	 3653.41	-1430.41	 3307.53
     23.4470	 3652.00	 3653.75	-1276.75	 3307.80
     23.4730	 3587.00	 3654.06	-1342.06	 3308.04
     23.4990	 3758.00	 3654.36	-1171.36	 3308.25
     23.5250	 3660.00	 3654.63	-1269.63	 3308.45
     23.5510	 3701.00	 3654.99	-1228.99	 3308.61
     23.5770	 3714.00	 3655.21	-1216.21	 3308.76
     23.6030	 3682.00	 3655.42	-1248.42	 3308.87
     23.6290	 3586.00	 3655.60	-1344.60	 3308.96
     23.6550	 3575.00	 3655.76	-1355.76	 3309.03
     23.6810	 3742.00	 3655.90	-1188.90	 3309.08
     23.7070	 3586.00	 3656.01	-1345.01	 3309.09
     23.7330	 3552.00	 3656.11	-1379.11	 3309.09
     23.7590	 3589.00	 3656.18	-1342.18	 3309.06
     23.7850	 3639.00	 3656.23	-1292.23	 3309.00
     23.8110	 3650.00	 3656.26	-1281.26	 3308.93
     23.8370	 3609.00	 3656.27	-1322.27	 3308.82
     23.8630	 3623.00	 3656.25	-1308.25	 3308.70
     23.8890	 3699.00	 3656.22	-1232.22	 3308.55
     23.9150	 3657.00	 3656.16	-1274.16	 3308.37
     23.9410	 3528.00	 3656.09	-1403.09	 3308.18
     23.9670	 3635.00	 3655.99	-1295.99	 3307.96
     23.9930	 3606.00	 3655.87	-1324.87	 3307.71
     24.0190	 3560.00	 3655.73	-1370.73	 3307.45
     24.0450	 3611.00	 3655.57	-1319.57	 3307.16
     24.0710	 3570.00	 3655.39	-1360.39	 3306.84
     24.0970	 3639.00	 3655.20	-1291.20	 3306.51
     24.1230	 3559.00	 3654.98	-1370.98	 3306.15
     24.1490	 3595.00	 3654.74	-1334.74	 3305.77
     24.1750	 3605.00	 3654.48	-1324.48	 3305.37
     24.2010	 3592.00	 3654.20	-1337.20	 3304.94
     24.2270	 3592.00	 3653.90	-1336.90	 3304.49
     24.2530	 3599.00	 3653.58	-1329.58	 3304.02
     24.2790	 3597.00	 3653.25	-1331.25	 3303.53
     24.3050	 3597.00	 3652.89	-1330.89	 3303.01
     24.3310	 3627.00	 3652.52	-1300.52	 3302.48
     24.3570	 3643.00	 3652.13	-1284.13	 3301.92
     24.3830	 3626.00	 3651.71	-1300.71	 3301.34
     24.4090	 3668.00	 3651.28	-1258.28	 3300.74
     24.4350	 3631.00	 3650.83	-1294.83	 3300.11
     24.4610	 3638.00	 3650.37	-1287.37	 3299.47
     24.4870	 3655.00	 3649.88	-1269.88	 3298.80
     24.5130	 3655.00	 3649.38	-1269.38	 3298.12
     24.5390	 3632.00	 3648.86	-1291.86	 3297.41
     24.5650	 3582.00	 3648.32	-1341.32	 3296.68
     24.5910	 3621.00	 3647.76	-1301.76	 3295.93
     24.6170	 3609.00	 3647.19	-1313.19	 3295.16
     24.6430	 3543.00	 3646.60	-1378.60	 3294.37
     24.6690	 3579.00	 3645.99	-1341.99	 3293.56
     24.6950	 3670.00	 3645.36	-1250.36	 3292.72
     24.7210	 3694.00	 3644.72	-1225.72	 3291.87
     24.7470	 3692.00	 3644.06	-1227.06	 3291.00
     24.7730	 3743.00	 3643.39	-1175.39	 3290.11
     24.7990	 3702.00	 3642.69	-1215.69	 3289.19
     24.8250	 3660.00	 3641.99	-1256.99	 3288.26
     24.8510	 3645.00	 3641.26	-1271.26	 3287.31
     24.8770	 3535.00	 3640.52	-1380.52	 3286.33
     24.9030	 3563.00	 3639.77	-1351.77	 3285.34
     24.9290	 3646.00	 3638.99	-1267.99	 3284.33
     24.9550	 3665.00	 3638.21	-1248.21	 3283.30
     24.9810	 3658.00	 3637.41	-1254.41	 3282.25
     25.0070	 3663.00	 3636.59	-1248.59	 3281.18
     25.0330	 3713.00	 3635.76	-1197.76	 3280.09
     25.0590	 3701.00	 3634.91	-1208.91	 3278.99
     25.0850	 3669.00	 3634.05	-1240.05	 3277.86
     25.1110	 3621.00	 3633.17	-1287.17	 3276.72
     25.1370	 3536.00	 3632.28	-1371.28	 3275.55
     25.1630	 3567.00	 3631.38	-1339.38	 3274.37
     25.1890	 3672.00	 3630.46	-1233.46	 3273.17
     25.2150	 3655.00	 3629.53	-1249.53	 3271.95
     25.2410	 3535.00	 3628.58	-1368.58	 3270.72
     25.2670	 3554.00	 3627.62	-1348.62	 3269.46
     25.2930	 3660.00	 3626.65	-1241.65	 3268.19
     25.3190	 3620.00	 3625.67	-1280.67	 3266.90
     25.3450	 3581.00	 3624.67	-1318.67	 3265.59
     25.3710	 3544.00	 3623.66	-1354.66	 3264.26
     25.3970	 3607.00	 3622.63	-1290.63	 3262.92
     25.4230	 3634.00	 3621.60	-1262.60	 3261.55
     25.4490	 3536.00	 3620.55	-1359.55	 3260.18
