 AH11    CELL:    8.39488   8.39488   8.39488   90.0000   90.0000   90.0000   SPGR: F d -3 m               TEMP:      0.00
  1   2495     1.54056     1.54443     0.00000     0.00000     0.00000    0
    32     0     0
 2Theta	Yobs	Ycal	Yobs-Ycal	Backg	Posr	(hkl)	K
     15.0230	 2614.00	 2627.85	-1296.48	 2270.86
     15.0490	 2693.00	 2626.27	-1215.90	 2269.00
     15.0750	 2689.00	 2624.70	-1218.33	 2267.14
     15.1010	 2630.00	 2623.13	-1275.76	 2265.27
     15.1270	 2704.00	 2621.57	-1200.21	 2263.41
     15.1530	 2679.00	 2620.02	-1223.66	 2261.55
     15.1790	 2604.00	 2618.48	-1297.11	 2259.69
     15.2050	 2722.00	 2616.94	-1177.58	 2257.83
     15.2310	 2679.00	 2615.42	-1219.05	 2255.97
     15.2570	 2696.00	 2613.90	-1200.53	 2254.11
     15.2830	 2660.00	 2612.38	-1235.02	 2252.25
     15.3090	 2715.00	 2610.88	-1178.51	 2250.39
     15.3350	 2649.00	 2609.39	-1243.02	 2248.52
     15.3610	 2737.00	 2607.90	-1153.53	 2246.66
     15.3870	 2628.00	 2606.42	-1261.06	 2244.80
     15.4130	 2614.00	 2604.96	-1273.59	 2242.94
     15.4390	 2686.00	 2603.50	-1200.13	 2241.08
     15.4650	 2622.00	 2602.05	-1262.69	 2239.22
     15.4910	 2557.00	 2600.62	-1326.25	 2237.36
     15.5170	 2668.00	 2599.20	-1213.83	 2235.50
     15.5430	 2630.00	 2597.78	-1250.41	 2233.64
     15.5690	 2600.00	 2596.38	-1279.01	 2231.77
     15.5950	 2649.00	 2594.99	-1228.63	 2229.91
     15.6210	 2625.00	 2593.62	-1251.25	 2228.05
     15.6470	 2647.00	 2592.26	-1227.89	 2226.19
     15.6730	 2662.00	 2590.91	-1211.54	 2224.33
     15.6990	 2657.00	 2589.57	-1215.20	 2222.47
     15.7250	 2639.00	 2588.25	-1231.89	 2220.61
     15.7510	 2698.00	 2586.95	-1171.58	 2218.75
     15.7770	 2695.00	 2585.66	-1173.29	 2216.89
     15.8030	 2626.00	 2584.39	-1241.02	 2215.02
     15.8290	 2589.00	 2583.14	-1276.77	 2213.16
     15.8550	 2653.00	 2581.90	-1211.53	 2211.30
     15.8810	 2611.00	 2580.68	-1252.31	 2209.44
     15.9070	 2578.00	 2581.78	-1286.41	 2209.88
     15.9330	 2556.00	 2587.62	-1314.25	 2215.04
     15.9590	 2709.00	 2593.49	-1167.12	 2220.20
     15.9850	 2744.00	 2599.37	-1138.00	 2225.36
     16.0110	 2716.00	 2605.28	-1171.91	 2230.52
     16.0370	 2665.00	 2611.21	-1228.84	 2235.68
     16.0630	 2727.00	 2617.17	-1172.80	 2240.84
     16.0890	 2687.00	 2623.15	-1218.78	 2246.00
     16.1150	 2738.00	 2629.16	-1173.79	 2251.16
     16.1410	 2709.00	 2635.20	-1208.83	 2256.32
     16.1670	 2738.00	 2641.27	-1185.90	 2261.48
     16.1930	 2678.00	 2647.36	-1252.00	 2266.64
     16.2190	 2711.00	 2653.49	-1225.12	 2271.80
     16.2450	 2634.00	 2659.66	-1308.29	 2276.97
     16.2710	 2690.00	 2665.85	-1258.48	 2282.13
     16.2970	 2766.00	 2672.09	-1188.72	 2287.29
     16.3230	 2770.00	 2678.36	-1190.99	 2292.45
     16.3490	 2768.00	 2684.67	-1199.30	 2297.61
     16.3750	 2773.00	 2691.02	-1200.65	 2302.77
     16.4010	 2674.00	 2697.42	-1306.05	 2307.93
     16.4270	 2712.00	 2703.86	-1274.49	 2313.09
     16.4530	 2771.00	 2710.35	-1221.98	 2318.25
     16.4790	 2677.00	 2716.89	-1322.52	 2323.41
     16.5050	 2639.00	 2723.49	-1367.12	 2328.57
     16.5310	 2746.00	 2730.14	-1266.77	 2333.73
     16.5570	 2762.00	 2736.84	-1257.48	 2338.90
     16.5830	 2678.00	 2743.61	-1348.25	 2344.06
     16.6090	 2700.00	 2750.45	-1333.08	 2349.22
     16.6350	 2780.00	 2757.35	-1259.98	 2354.38
     16.6610	 2786.00	 2764.33	-1260.96	 2359.54
     16.6870	 2798.00	 2771.38	-1256.01	 2364.70
     16.7130	 2816.00	 2778.51	-1245.14	 2369.86
     16.7390	 2840.00	 2785.72	-1228.35	 2375.02
     16.7650	 2801.00	 2793.03	-1274.66	 2380.18
     16.7910	 2776.00	 2800.42	-1307.06	 2385.34
     16.8170	 2845.00	 2807.92	-1245.55	 2390.50
     16.8430	 2875.00	 2815.52	-1223.15	 2395.66
     16.8690	 2853.00	 2823.24	-1252.87	 2400.83
     16.8950	 2839.00	 2831.07	-1274.70	 2405.99
     16.9210	 2833.00	 2839.02	-1288.65	 2411.15
     16.9470	 2833.00	 2847.11	-1296.74	 2416.31
     16.9730	 2915.00	 2855.33	-1222.97	 2421.47
     16.9990	 2961.00	 2863.71	-1185.34	 2426.63
     17.0250	 2921.00	 2872.24	-1233.87	 2431.79
     17.0510	 2877.00	 2880.94	-1286.57	 2436.95
     17.0770	 2849.00	 2889.82	-1323.45	 2442.11
     17.1030	 2852.00	 2898.89	-1329.52	 2447.27
     17.1290	 2819.00	 2908.15	-1371.78	 2452.43
     17.1550	 2894.00	 2917.63	-1306.26	 2457.59
     17.1810	 2906.00	 2927.33	-1303.97	 2462.76
     17.2070	 2922.00	 2937.28	-1297.91	 2467.92
     17.2330	 2913.00	 2947.48	-1317.11	 2473.08
     17.2590	 2894.00	 2957.96	-1346.59	 2478.24
     17.2850	 2906.00	 2968.72	-1345.35	 2483.40
     17.3110	 2967.00	 2979.79	-1295.42	 2488.56
     17.3370	 2951.00	 2991.19	-1322.82	 2493.72
     17.3630	 2949.00	 3002.93	-1336.57	 2498.88
     17.3890	 3055.00	 3015.05	-1242.68	 2504.04
     17.4150	 2976.00	 3027.56	-1334.19	 2509.20
     17.4410	 3094.00	 3040.48	-1229.11	 2514.36
     17.4670	 3035.00	 3053.85	-1301.48	 2519.52
     17.4930	 3050.00	 3067.68	-1300.31	 2524.69
     17.5190	 3112.00	 3082.01	-1252.64	 2529.85
     17.5450	 3044.00	 3096.85	-1335.48	 2535.01
     17.5710	 3030.00	 3112.25	-1364.88	 2540.17
     17.5970	 3018.00	 3128.21	-1392.85	 2545.33
     17.6230	 3089.00	 3144.78	-1338.42	 2550.49
     17.6490	 3027.00	 3161.98	-1417.61	 2555.65
     17.6750	 3088.00	 3179.83	-1374.46	 2560.81
     17.7010	 3037.00	 3198.34	-1443.97	 2565.97
     17.7270	 3091.00	 3217.54	-1409.17	 2571.13
     17.7530	 3060.00	 3237.43	-1460.06	 2576.29
     17.7790	 3149.00	 3258.02	-1391.65	 2581.45
     17.8050	 3177.00	 3279.29	-1384.92	 2586.61
     17.8310	 3217.00	 3301.24	-1366.87	 2591.78
     17.8570	 3242.00	 3323.82	-1364.45	 2596.94
     17.8830	 3263.00	 3346.98	-1366.61	 2602.10
     17.9090	 3249.00	 3370.65	-1404.28	 2607.26
     17.9350	 3270.00	 3394.74	-1407.37	 2612.42
     17.9610	 3292.00	 3419.12	-1409.75	 2617.58
     17.9870	 3336.00	 3443.64	-1390.27	 2622.74
     18.0130	 3260.00	 3468.13	-1490.76	 2627.90
     18.0390	 3282.00	 3492.38	-1493.01	 2633.06
     18.0650	 3266.00	 3516.14	-1532.77	 2638.22
     18.0910	 3407.00	 3539.14	-1414.77	 2643.38
     18.1170	 3348.00	 3561.12	-1495.75	 2648.54
     18.1430	 3347.00	 3581.76	-1517.39	 2653.71
     18.1690	 3436.00	 3600.76	-1447.39	 2658.87
     18.1950	 3392.00	 3617.84	-1508.48	 2664.03
     18.2210	 3369.00	 3632.74	-1546.37	 2669.19
     18.2470	 3448.00	 3645.21	-1479.84	 2674.35
     18.2730	 3558.00	 3655.08	-1379.71	 2679.51
     18.2990	 3464.00	 3662.23	-1480.86	 2684.67
     18.3250	 3515.00	 3666.61	-1434.25	 2689.83
     18.3510	 3440.00	 3668.25	-1510.88	 2694.99
     18.3770	 3466.00	 3667.23	-1483.86	 2700.15
     18.4030	 3463.00	 3663.70	-1483.33	 2705.31
     18.4290	 3449.00	 3657.89	-1491.52	 2710.47
     18.4550	 3417.00	 3650.03	-1515.66	 2715.64
     18.4810	 3344.00	 3640.41	-1579.04	 2720.80
     18.5070	 3444.00	 3629.34	-1467.97	 2725.96
     18.5330	 3324.00	 3617.10	-1575.73	 2731.12
     18.5590	 3446.00	 3603.99	-1440.62	 2736.28
     18.5850	 3359.00	 3590.29	-1513.92	 2741.44
     18.6110	 3412.00	 3576.24	-1446.87	 2746.60
     18.6370	 3484.00	 3562.07	-1360.70	 2751.76
     18.6630	 3377.00	 3547.97	-1453.60	 2756.92
     18.6890	 3435.00	 3534.10	-1381.74	 2762.08
     18.7150	 3436.00	 3520.60	-1367.24	 2767.24
     18.7410	 3427.00	 3507.58	-1363.21	 2772.40
     18.7670	 3334.00	 3495.10	-1443.73	 2777.57
     18.7930	 3362.00	 3483.24	-1403.87	 2782.73
     18.8190	 3373.00	 3472.04	-1381.67	 2787.89
     18.8450	 3328.00	 3460.19	-1414.82	 2791.72
     18.8710	 3308.00	 3448.88	-1423.51	 2795.41
     18.8970	 3306.00	 3438.27	-1414.90	 2799.09
     18.9230	 3380.00	 3428.35	-1330.98	 2802.78
     18.9490	 3390.00	 3419.11	-1311.74	 2806.46
     18.9750	 3311.00	 3410.52	-1382.15	 2810.15
     19.0010	 3313.00	 3402.57	-1372.20	 2813.83
     19.0270	 3317.00	 3395.23	-1360.86	 2817.52
     19.0530	 3339.00	 3388.48	-1332.11	 2821.20
     19.0790	 3314.00	 3382.28	-1350.91	 2824.89
     19.1050	 3319.00	 3376.62	-1340.25	 2828.57
     19.1310	 3333.00	 3371.47	-1321.10	 2832.26
     19.1570	 3305.00	 3366.79	-1344.42	 2835.94
     19.1830	 3377.00	 3362.56	-1268.19	 2839.63
     19.2090	 3421.00	 3358.76	-1220.39	 2843.32
     19.2350	 3353.00	 3355.37	-1285.00	 2847.00
     19.2610	 3292.00	 3352.35	-1342.98	 2850.69
     19.2870	 3333.00	 3349.69	-1299.32	 2854.37
     19.3130	 3320.00	 3347.36	-1310.00	 2858.06
     19.3390	 3288.00	 3345.36	-1339.99	 2861.74
     19.3650	 3294.00	 3343.65	-1332.28	 2865.43
     19.3910	 3309.00	 3342.21	-1315.85	 2869.11
     19.4170	 3344.00	 3341.05	-1279.68	 2872.80
     19.4430	 3294.00	 3340.13	-1328.76	 2876.48
     19.4690	 3276.00	 3339.44	-1346.07	 2880.17
     19.4950	 3384.00	 3338.97	-1237.60	 2883.85
     19.5210	 3393.00	 3338.70	-1228.33	 2887.54
     19.5470	 3301.00	 3338.95	-1320.58	 2891.23
     19.5730	 3228.00	 3339.06	-1393.70	 2894.91
     19.5990	 3245.00	 3339.35	-1376.98	 2898.60
     19.6250	 3355.00	 3339.79	-1267.42	 2902.28
     19.6510	 3411.00	 3340.55	-1212.18	 2905.97
     19.6770	 3439.00	 3341.29	-1184.92	 2909.65
     19.7030	 3367.00	 3342.17	-1257.80	 2913.34
     19.7290	 3314.00	 3343.17	-1311.80	 2917.02
     19.7550	 3417.00	 3344.30	-1209.93	 2920.71
     19.7810	 3431.00	 3345.54	-1197.17	 2924.39
     19.8070	 3431.00	 3346.88	-1198.51	 2928.08
     19.8330	 3385.00	 3348.33	-1245.96	 2931.76
     19.8590	 3346.00	 3349.88	-1286.51	 2935.45
     19.8850	 3384.00	 3351.51	-1250.14	 2939.14
     19.9110	 3329.00	 3353.23	-1306.87	 2942.82
     19.9370	 3311.00	 3355.04	-1326.67	 2946.51
     19.9630	 3366.00	 3356.92	-1273.55	 2950.19
     19.9890	 3402.00	 3358.88	-1239.51	 2953.88
     20.0150	 3419.00	 3360.90	-1224.53	 2957.56
     20.0410	 3477.00	 3362.99	-1168.62	 2961.25
     20.0670	 3404.00	 3365.15	-1243.78	 2964.93
     20.0930	 3400.00	 3367.36	-1249.99	 2968.62
     20.1190	 3376.00	 3369.63	-1276.26	 2972.30
     20.1450	 3491.00	 3371.96	-1163.59	 2975.99
     20.1710	 3491.00	 3374.34	-1165.97	 2979.68
     20.1970	 3532.00	 3376.76	-1127.39	 2983.36
     20.2230	 3460.00	 3379.24	-1201.87	 2987.05
     20.2490	 3401.00	 3381.76	-1263.39	 2990.73
     20.2750	 3465.00	 3384.32	-1201.95	 2994.42
     20.3010	 3514.00	 3386.92	-1155.55	 2998.10
     20.3270	 3429.00	 3389.56	-1243.19	 3001.79
     20.3530	 3375.00	 3392.24	-1299.87	 3005.47
     20.3790	 3444.00	 3394.95	-1233.58	 3009.16
     20.4050	 3460.00	 3397.70	-1220.33	 3012.84
     20.4310	 3523.00	 3400.48	-1160.11	 3016.53
     20.4570	 3514.00	 3403.29	-1171.92	 3020.21
     20.4830	 3406.00	 3406.13	-1282.76	 3023.90
     20.5090	 3388.00	 3409.00	-1303.64	 3027.59
     20.5350	 3387.00	 3411.90	-1307.53	 3031.27
     20.5610	 3566.00	 3414.82	-1131.46	 3034.96
     20.5870	 3589.00	 3417.77	-1111.41	 3038.64
     20.6130	 3424.00	 3420.75	-1279.38	 3042.33
     20.6390	 3442.00	 3423.74	-1264.38	 3046.01
     20.6650	 3460.00	 3426.76	-1249.39	 3049.70
     20.6910	 3425.00	 3429.80	-1287.43	 3053.38
     20.7170	 3504.00	 3432.86	-1211.50	 3057.07
     20.7430	 3537.00	 3435.95	-1181.58	 3060.75
     20.7690	 3465.00	 3439.05	-1256.68	 3064.44
     20.7950	 3484.00	 3442.16	-1240.79	 3068.12
     20.8210	 3426.00	 3445.30	-1301.93	 3071.81
     20.8470	 3490.00	 3448.45	-1241.08	 3075.50
     20.8730	 3576.00	 3451.62	-1158.25	 3079.18
     20.8990	 3538.00	 3454.81	-1199.44	 3082.87
     20.9250	 3544.00	 3458.01	-1196.64	 3086.55
     20.9510	 3439.00	 3461.22	-1304.85	 3090.24
     20.9770	 3494.00	 3464.45	-1253.08	 3093.92
     21.0030	 3446.00	 3467.70	-1304.33	 3097.61
     21.0290	 3542.00	 3470.95	-1211.58	 3101.29
     21.0550	 3485.00	 3474.22	-1271.85	 3104.98
     21.0810	 3552.00	 3477.50	-1208.13	 3108.66
     21.1070	 3514.00	 3480.80	-1249.43	 3112.35
     21.1330	 3519.00	 3484.10	-1247.73	 3116.03
     21.1590	 3608.00	 3487.42	-1162.05	 3119.72
     21.1850	 3595.00	 3490.74	-1178.38	 3123.41
     21.2110	 3572.00	 3494.08	-1204.71	 3127.09
     21.2370	 3580.00	 3497.43	-1200.06	 3130.78
     21.2630	 3643.00	 3500.79	-1140.42	 3134.46
     21.2890	 3566.00	 3504.15	-1220.78	 3138.15
     21.3150	 3528.00	 3507.53	-1262.16	 3141.83
     21.3410	 3515.00	 3510.91	-1278.55	 3145.52
     21.3670	 3511.00	 3514.31	-1285.94	 3149.20
     21.3930	 3531.00	 3517.71	-1269.34	 3152.89
     21.4190	 3643.00	 3521.12	-1160.75	 3156.57
     21.4450	 3571.00	 3524.54	-1236.17	 3160.26
     21.4710	 3535.00	 3527.96	-1275.59	 3163.95
     21.4970	 3601.00	 3531.39	-1213.03	 3167.63
     21.5230	 3689.00	 3531.74	-1125.37	 3168.22
     21.5490	 3583.00	 3532.05	-1231.68	 3168.77
     21.5750	 3632.00	 3532.36	-1182.99	 3169.31
     21.6010	 3675.00	 3532.68	-1140.31	 3169.86
     21.6270	 3623.00	 3533.01	-1192.64	 3170.40
     21.6530	 3592.00	 3533.34	-1223.97	 3170.95
     21.6790	 3592.00	 3533.68	-1224.31	 3171.49
     21.7050	 3675.00	 3534.02	-1141.66	 3172.04
     21.7310	 3590.00	 3534.37	-1227.01	 3172.58
     21.7570	 3535.00	 3534.73	-1282.36	 3173.13
     21.7830	 3580.00	 3535.09	-1237.72	 3173.67
     21.8090	 3616.00	 3535.46	-1202.09	 3174.22
     21.8350	 3641.00	 3535.83	-1177.46	 3174.76
     21.8610	 3645.00	 3536.21	-1173.84	 3175.31
     21.8870	 3595.00	 3536.59	-1224.22	 3175.85
     21.9130	 3536.00	 3536.97	-1283.61	 3176.40
     21.9390	 3532.00	 3537.37	-1288.00	 3176.94
     21.9650	 3585.00	 3537.76	-1235.39	 3177.49
     21.9910	 3622.00	 3538.16	-1198.79	 3178.03
     22.0170	 3655.00	 3538.57	-1166.20	 3178.58
     22.0430	 3635.00	 3538.98	-1186.61	 3179.12
     22.0690	 3632.00	 3539.39	-1190.02	 3179.67
     22.0950	 3676.00	 3539.81	-1146.44	 3180.21
     22.1210	 3608.00	 3540.23	-1214.86	 3180.76
     22.1470	 3547.00	 3540.65	-1276.28	 3181.30
     22.1730	 3608.00	 3541.08	-1215.71	 3181.85
     22.1990	 3592.00	 3541.52	-1232.15	 3182.39
     22.2250	 3527.00	 3541.95	-1297.58	 3182.94
     22.2510	 3602.00	 3542.39	-1223.02	 3183.48
     22.2770	 3627.00	 3542.83	-1198.47	 3184.03
     22.3030	 3617.00	 3543.28	-1208.91	 3184.57
     22.3290	 3635.00	 3543.73	-1191.36	 3185.12
     22.3550	 3655.00	 3544.19	-1171.82	 3185.66
     22.3810	 3687.00	 3544.64	-1140.27	 3186.21
     22.4070	 3689.00	 3545.10	-1138.73	 3186.75
     22.4330	 3635.00	 3545.56	-1193.20	 3187.30
     22.4590	 3618.00	 3546.03	-1210.66	 3187.84
     22.4850	 3662.00	 3546.50	-1167.13	 3188.39
     22.5110	 3695.00	 3546.97	-1134.60	 3188.93
     22.5370	 3631.00	 3547.45	-1199.08	 3189.48
     22.5630	 3544.00	 3547.92	-1286.56	 3190.02
     22.5890	 3619.00	 3548.41	-1212.04	 3190.57
     22.6150	 3684.00	 3548.89	-1147.52	 3191.11
     22.6410	 3621.00	 3549.37	-1211.01	 3191.66
     22.6670	 3661.00	 3549.86	-1171.49	 3192.20
     22.6930	 3675.00	 3550.35	-1157.99	 3192.75
     22.7190	 3723.00	 3550.85	-1110.48	 3193.29
     22.7450	 3659.00	 3551.34	-1174.98	 3193.84
     22.7710	 3580.00	 3551.84	-1254.47	 3194.38
     22.7970	 3573.00	 3552.34	-1261.98	 3194.93
     22.8230	 3615.00	 3552.85	-1220.48	 3195.47
     22.8490	 3544.00	 3553.35	-1291.99	 3196.01
     22.8750	 3647.00	 3553.86	-1189.49	 3196.56
     22.9010	 3694.00	 3554.37	-1143.00	 3197.10
     22.9270	 3723.00	 3554.89	-1114.52	 3197.65
     22.9530	 3689.00	 3555.40	-1149.03	 3198.19
     22.9790	 3687.00	 3555.92	-1151.55	 3198.74
     23.0050	 3619.00	 3556.44	-1220.07	 3199.28
     23.0310	 3623.00	 3556.96	-1216.59	 3199.83
     23.0570	 3701.00	 3557.49	-1139.12	 3200.37
     23.0830	 3565.00	 3558.01	-1275.64	 3200.92
     23.1090	 3568.00	 3558.54	-1273.17	 3201.46
     23.1350	 3616.00	 3559.07	-1225.70	 3202.01
     23.1610	 3609.00	 3559.60	-1233.23	 3202.55
     23.1870	 3637.00	 3560.14	-1205.77	 3203.10
     23.2130	 3620.00	 3560.67	-1223.31	 3203.64
     23.2390	 3620.00	 3561.21	-1223.84	 3204.19
     23.2650	 3707.00	 3561.75	-1137.39	 3204.73
     23.2910	 3739.00	 3562.34	-1105.97	 3205.28
     23.3170	 3734.00	 3562.88	-1111.51	 3205.82
     23.3430	 3594.00	 3563.43	-1252.06	 3206.37
     23.3690	 3543.00	 3563.98	-1303.61	 3206.91
     23.3950	 3602.00	 3564.55	-1245.18	 3207.46
     23.4210	 3498.00	 3565.10	-1349.73	 3208.00
     23.4470	 3652.00	 3565.66	-1196.29	 3208.55
     23.4730	 3587.00	 3566.21	-1261.84	 3209.09
     23.4990	 3758.00	 3566.77	-1091.40	 3209.64
     23.5250	 3660.00	 3567.33	-1189.96	 3210.18
     23.5510	 3701.00	 3567.89	-1149.53	 3210.73
     23.5770	 3714.00	 3568.46	-1137.09	 3211.27
     23.6030	 3682.00	 3569.02	-1169.65	 3211.82
     23.6290	 3586.00	 3569.59	-1266.22	 3212.36
     23.6550	 3575.00	 3570.16	-1277.79	 3212.91
     23.6810	 3742.00	 3570.73	-1111.36	 3213.45
     23.7070	 3586.00	 3571.30	-1267.94	 3214.00
     23.7330	 3552.00	 3571.88	-1302.51	 3214.54
     23.7590	 3589.00	 3572.46	-1266.09	 3215.09
     23.7850	 3639.00	 3573.04	-1216.67	 3215.63
     23.8110	 3650.00	 3573.62	-1206.25	 3216.18
     23.8370	 3609.00	 3574.20	-1247.83	 3216.72
     23.8630	 3623.00	 3574.78	-1234.41	 3217.27
     23.8890	 3699.00	 3575.37	-1159.00	 3217.81
     23.9150	 3657.00	 3575.96	-1201.59	 3218.36
     23.9410	 3528.00	 3576.55	-1331.18	 3218.90
     23.9670	 3635.00	 3577.14	-1224.77	 3219.45
     23.9930	 3606.00	 3577.73	-1254.36	 3219.99
     24.0190	 3560.00	 3578.33	-1300.96	 3220.54
     24.0450	 3611.00	 3578.92	-1250.56	 3221.08
     24.0710	 3570.00	 3579.52	-1292.15	 3221.63
     24.0970	 3639.00	 3580.12	-1223.75	 3222.17
     24.1230	 3559.00	 3580.73	-1304.36	 3222.72
     24.1490	 3595.00	 3581.33	-1268.96	 3223.26
     24.1750	 3605.00	 3581.94	-1259.57	 3223.81
     24.2010	 3592.00	 3582.54	-1273.18	 3224.35
     24.2270	 3592.00	 3583.16	-1273.79	 3224.90
     24.2530	 3599.00	 3583.77	-1267.40	 3225.44
     24.2790	 3597.00	 3584.38	-1270.01	 3225.99
     24.3050	 3597.00	 3585.00	-1270.63	 3226.53
     24.3310	 3627.00	 3585.61	-1241.25	 3227.08
     24.3570	 3643.00	 3586.23	-1225.87	 3227.62
     24.3830	 3626.00	 3586.86	-1243.49	 3228.17
     24.4090	 3668.00	 3587.48	-1202.11	 3228.71
     24.4350	 3631.00	 3588.11	-1239.74	 3229.25
     24.4610	 3638.00	 3588.73	-1233.36	 3229.80
     24.4870	 3655.00	 3589.36	-1216.99	 3230.34
     24.5130	 3655.00	 3589.99	-1217.63	 3230.89
     24.5390	 3632.00	 3590.63	-1241.26	 3231.43
     24.5650	 3582.00	 3591.26	-1291.90	 3231.98
     24.5910	 3621.00	 3591.90	-1253.53	 3232.52
     24.6170	 3609.00	 3592.54	-1266.17	 3233.07
     24.6430	 3543.00	 3593.18	-1332.82	 3233.61
     24.6690	 3579.00	 3593.83	-1297.46	 3234.16
     24.6950	 3670.00	 3594.47	-1207.11	 3234.70
     24.7210	 3694.00	 3595.12	-1183.75	 3235.25
     24.7470	 3692.00	 3595.77	-1186.41	 3235.79
     24.7730	 3743.00	 3596.43	-1136.06	 3236.34
     24.7990	 3702.00	 3597.08	-1177.71	 3236.88
     24.8250	 3660.00	 3597.74	-1220.37	 3237.43
     24.8510	 3645.00	 3598.40	-1236.03	 3237.97
     24.8770	 3535.00	 3599.06	-1346.69	 3238.52
     24.9030	 3563.00	 3599.73	-1319.36	 3239.06
     24.9290	 3646.00	 3600.39	-1237.03	 3239.61
     24.9550	 3665.00	 3601.06	-1218.70	 3240.15
     24.9810	 3658.00	 3601.74	-1226.37	 3240.70
     25.0070	 3663.00	 3602.41	-1222.04	 3241.24
     25.0330	 3713.00	 3603.09	-1172.72	 3241.79
     25.0590	 3701.00	 3603.77	-1185.40	 3242.33
     25.0850	 3669.00	 3604.45	-1218.08	 3242.88
     25.1110	 3621.00	 3605.13	-1266.76	 3243.42
     25.1370	 3536.00	 3605.82	-1352.45	 3243.97
     25.1630	 3567.00	 3606.51	-1322.14	 3244.51
     25.1890	 3672.00	 3607.20	-1217.83	 3245.06
     25.2150	 3655.00	 3607.90	-1235.53	 3245.60
     25.2410	 3535.00	 3608.60	-1356.23	 3246.15
     25.2670	 3554.00	 3609.30	-1337.93	 3246.69
     25.2930	 3660.00	 3610.00	-1232.63	 3247.24
     25.3190	 3620.00	 3610.71	-1273.34	 3247.78
     25.3450	 3581.00	 3611.42	-1313.05	 3248.33
     25.3710	 3544.00	 3612.13	-1350.77	 3248.87
     25.3970	 3607.00	 3612.85	-1288.48	 3249.42
     25.4230	 3634.00	 3613.57	-1262.20	 3249.96
     25.4490	 3536.00	 3614.29	-1360.92	 3250.51
