 DD144    CELL:    8.38412   8.38412   8.38412   90.0000   90.0000   90.0000   SPGR: F d -3 m               TEMP:      0.00
  2   2495     1.54056     1.54443     0.00000     0.00000     0.00000    0
    32    10     0     0     0
 2Theta	Yobs	Ycal	Yobs-Ycal	Backg	Posr	(hkl)	K
     15.0230	 3588.00	 3614.51	-1690.01	 3099.41
     15.0490	 3570.00	 3616.17	-1709.67	 3100.90
     15.0750	 3597.00	 3617.84	-1684.34	 3102.40
     15.1010	 3647.00	 3619.52	-1636.02	 3103.90
     15.1270	 3609.00	 3621.19	-1675.69	 3105.39
     15.1530	 3560.00	 3622.87	-1726.37	 3106.89
     15.1790	 3699.00	 3624.55	-1589.05	 3108.39
     15.2050	 3658.00	 3626.24	-1631.74	 3109.88
     15.2310	 3594.00	 3627.93	-1697.43	 3111.38
     15.2570	 3643.00	 3629.62	-1650.12	 3112.88
     15.2830	 3669.00	 3631.32	-1625.82	 3114.37
     15.3090	 3684.00	 3633.02	-1612.52	 3115.87
     15.3350	 3578.00	 3634.73	-1720.23	 3117.37
     15.3610	 3655.00	 3636.44	-1644.94	 3118.86
     15.3870	 3606.00	 3638.15	-1695.65	 3120.36
     15.4130	 3766.00	 3639.87	-1537.37	 3121.86
     15.4390	 3682.00	 3641.59	-1623.09	 3123.35
     15.4650	 3550.00	 3643.32	-1756.82	 3124.85
     15.4910	 3619.00	 3645.05	-1689.55	 3126.35
     15.5170	 3576.00	 3646.79	-1734.29	 3127.84
     15.5430	 3556.00	 3648.53	-1756.03	 3129.34
     15.5690	 3663.00	 3650.28	-1650.78	 3130.84
     15.5950	 3697.00	 3652.04	-1618.54	 3132.33
     15.6210	 3737.00	 3653.79	-1580.29	 3133.83
     15.6470	 3801.00	 3655.56	-1518.06	 3135.33
     15.6730	 3611.00	 3657.33	-1709.83	 3136.82
     15.6990	 3662.00	 3659.11	-1660.61	 3138.32
     15.7250	 3805.00	 3660.89	-1519.39	 3139.82
     15.7510	 3749.00	 3662.68	-1577.18	 3141.31
     15.7770	 3762.00	 3664.48	-1565.98	 3142.81
     15.8030	 3776.00	 3666.29	-1553.79	 3144.31
     15.8290	 3683.00	 3668.10	-1648.60	 3145.80
     15.8550	 3766.00	 3669.92	-1567.42	 3147.30
     15.8810	 3744.00	 3671.74	-1591.24	 3148.80
     15.9070	 3755.00	 3673.58	-1582.08	 3150.29
     15.9330	 3640.00	 3675.42	-1698.92	 3151.79
     15.9590	 3674.00	 3677.28	-1666.78	 3153.29
     15.9850	 3701.00	 3679.14	-1641.64	 3154.78
     16.0110	 3729.00	 3681.01	-1615.51	 3156.28
     16.0370	 3660.00	 3682.89	-1686.39	 3157.78
     16.0630	 3715.00	 3684.78	-1633.28	 3159.27
     16.0890	 3680.00	 3687.78	-1671.28	 3161.87
     16.1150	 3758.00	 3691.70	-1597.20	 3165.37
     16.1410	 3725.00	 3695.63	-1634.13	 3168.88
     16.1670	 3717.00	 3699.57	-1646.07	 3172.38
     16.1930	 3779.00	 3703.52	-1588.02	 3175.88
     16.2190	 3807.00	 3707.48	-1563.98	 3179.38
     16.2450	 3740.00	 3711.46	-1634.96	 3182.88
     16.2710	 3698.00	 3715.44	-1680.94	 3186.39
     16.2970	 3748.00	 3719.45	-1634.95	 3189.89
     16.3230	 3678.00	 3723.46	-1708.96	 3193.39
     16.3490	 3704.00	 3727.49	-1686.99	 3196.89
     16.3750	 3818.00	 3731.54	-1577.04	 3200.39
     16.4010	 3863.00	 3735.60	-1536.10	 3203.90
     16.4270	 3811.00	 3739.68	-1592.18	 3207.40
     16.4530	 3774.00	 3743.78	-1633.28	 3210.90
     16.4790	 3789.00	 3747.89	-1622.39	 3214.40
     16.5050	 3810.00	 3752.02	-1605.52	 3217.91
     16.5310	 3804.00	 3756.17	-1615.67	 3221.41
     16.5570	 3867.00	 3760.34	-1556.84	 3224.91
     16.5830	 3894.00	 3764.53	-1534.03	 3228.41
     16.6090	 3837.00	 3768.74	-1595.24	 3231.91
     16.6350	 3804.00	 3772.97	-1632.47	 3235.42
     16.6610	 3764.00	 3777.23	-1676.73	 3238.92
     16.6870	 3804.00	 3781.51	-1641.01	 3242.42
     16.7130	 3923.00	 3785.81	-1526.31	 3245.92
     16.7390	 3831.00	 3790.14	-1622.64	 3249.42
     16.7650	 3786.00	 3794.50	-1672.00	 3252.93
     16.7910	 3897.00	 3798.88	-1565.38	 3256.43
     16.8170	 3864.00	 3803.29	-1602.79	 3259.93
     16.8430	 3792.00	 3807.74	-1679.24	 3263.43
     16.8690	 3876.00	 3812.21	-1599.71	 3266.93
     16.8950	 3980.00	 3816.71	-1500.21	 3270.44
     16.9210	 3937.00	 3822.67	-1549.17	 3275.36
     16.9470	 3861.00	 3830.60	-1633.10	 3282.22
     16.9730	 3863.00	 3838.56	-1639.06	 3289.08
     16.9990	 3893.00	 3846.57	-1617.07	 3295.95
     17.0250	 3878.00	 3854.61	-1640.11	 3302.81
     17.0510	 3882.00	 3862.69	-1644.19	 3309.67
     17.0770	 3872.00	 3870.80	-1662.30	 3316.54
     17.1030	 3871.00	 3878.96	-1671.46	 3323.40
     17.1290	 3944.00	 3887.17	-1606.67	 3330.26
     17.1550	 3930.00	 3895.41	-1628.91	 3337.12
     17.1810	 3932.00	 3903.70	-1635.20	 3343.99
     17.2070	 3966.00	 3912.04	-1609.54	 3350.85
     17.2330	 3931.00	 3920.43	-1652.93	 3357.71
     17.2590	 3961.00	 3928.86	-1631.36	 3364.58
     17.2850	 3910.00	 3937.34	-1690.84	 3371.44
     17.3110	 3930.00	 3945.87	-1679.37	 3378.30
     17.3370	 3953.00	 3954.46	-1664.96	 3385.16
     17.3630	 4131.00	 3963.09	-1495.59	 3392.03
     17.3890	 4124.00	 3971.78	-1511.28	 3398.89
     17.4150	 4046.00	 3980.52	-1598.02	 3405.75
     17.4410	 4010.00	 3989.32	-1642.82	 3412.61
     17.4670	 3875.00	 3998.16	-1786.66	 3419.48
     17.4930	 3839.00	 4007.06	-1831.56	 3426.34
     17.5190	 3943.00	 4016.01	-1736.51	 3433.20
     17.5450	 4040.00	 4025.01	-1648.51	 3440.07
     17.5710	 3978.00	 4034.06	-1719.56	 3446.93
     17.5970	 3981.00	 4043.16	-1725.66	 3453.79
     17.6230	 3959.00	 4052.30	-1756.80	 3460.65
     17.6490	 4176.00	 4061.48	-1548.98	 3467.52
     17.6750	 4040.00	 4070.69	-1694.19	 3474.38
     17.7010	 4086.00	 4079.94	-1657.44	 3481.24
     17.7270	 3992.00	 4089.22	-1760.72	 3488.11
     17.7530	 4187.00	 4098.52	-1575.02	 3494.97
     17.7790	 4102.00	 4107.83	-1669.33	 3501.83
     17.8050	 4067.00	 4115.74	-1712.24	 3507.29
     17.8310	 4142.00	 4122.62	-1644.12	 3511.72
     17.8570	 4047.00	 4129.50	-1746.00	 3516.15
     17.8830	 4025.00	 4136.35	-1774.85	 3520.57
     17.9090	 4208.00	 4143.16	-1598.66	 3525.00
     17.9350	 4080.00	 4149.94	-1733.44	 3529.43
     17.9610	 4217.00	 4156.66	-1603.16	 3533.86
     17.9870	 4139.00	 4163.30	-1687.80	 3538.29
     18.0130	 4124.00	 4169.87	-1709.37	 3542.72
     18.0390	 4075.00	 4176.34	-1764.84	 3547.15
     18.0650	 4051.00	 4182.70	-1795.20	 3551.57
     18.0910	 4222.00	 4188.93	-1630.43	 3556.00
     18.1170	 4200.00	 4195.03	-1658.53	 3560.43
     18.1430	 4142.00	 4200.98	-1722.48	 3564.86
     18.1690	 4079.00	 4206.76	-1791.26	 3569.29
     18.1950	 4016.00	 4212.37	-1859.87	 3573.72
     18.2210	 4261.00	 4217.79	-1620.29	 3578.15
     18.2470	 4289.00	 4223.03	-1597.53	 3582.57
     18.2730	 4205.00	 4228.06	-1686.56	 3587.00
     18.2990	 4326.00	 4232.89	-1570.39	 3591.43
     18.3250	 4302.00	 4237.51	-1599.01	 3595.86
     18.3510	 3990.00	 4241.92	-1915.42	 3600.29
     18.3770	 4027.00	 4246.12	-1882.62	 3604.72
     18.4030	 4133.00	 4250.11	-1780.61	 3609.15
     18.4290	 4288.00	 4253.91	-1629.41	 3613.57
     18.4550	 4257.00	 4257.51	-1664.01	 3618.00
     18.4810	 4222.00	 4260.92	-1702.42	 3622.43
     18.5070	 4135.00	 4264.16	-1792.66	 3626.86
     18.5330	 4217.00	 4267.23	-1713.73	 3631.29
     18.5590	 4127.00	 4270.14	-1806.64	 3635.72
     18.5850	 4121.00	 4272.92	-1815.42	 3640.15
     18.6110	 4222.00	 4275.57	-1717.07	 3644.57
     18.6370	 4203.00	 4278.11	-1738.61	 3649.00
     18.6630	 4198.00	 4280.54	-1746.04	 3653.43
     18.6890	 4191.00	 4282.89	-1755.39	 3657.86
     18.7150	 4162.00	 4285.17	-1786.67	 3662.29
     18.7410	 4140.00	 4287.39	-1810.89	 3666.72
     18.7670	 4206.00	 4289.56	-1747.06	 3671.14
     18.7930	 4219.00	 4291.69	-1736.19	 3675.57
     18.8190	 4136.00	 4293.80	-1821.30	 3680.00
     18.8450	 4212.00	 4295.90	-1747.40	 3684.43
     18.8710	 4238.00	 4298.00	-1723.50	 3688.86
     18.8970	 4219.00	 4300.10	-1744.60	 3693.29
     18.9230	 4201.00	 4302.21	-1764.71	 3697.72
     18.9490	 4217.00	 4304.35	-1750.85	 3702.14
     18.9750	 4108.00	 4306.50	-1862.00	 3706.57
     19.0010	 4168.00	 4308.69	-1804.19	 3711.00
     19.0270	 4216.00	 4310.92	-1758.42	 3715.43
     19.0530	 4157.00	 4313.19	-1819.69	 3719.86
     19.0790	 4200.00	 4315.49	-1778.99	 3724.29
     19.1050	 4178.00	 4317.85	-1803.35	 3728.72
     19.1310	 4172.00	 4320.25	-1811.75	 3733.14
     19.1570	 4230.00	 4320.10	-1753.60	 3734.96
     19.1830	 4280.00	 4319.84	-1703.34	 3736.63
     19.2090	 4171.00	 4319.64	-1812.14	 3738.30
     19.2350	 4101.00	 4319.49	-1881.99	 3739.97
     19.2610	 4161.00	 4319.40	-1821.90	 3741.64
     19.2870	 4235.00	 4319.35	-1747.85	 3743.31
     19.3130	 4133.00	 4319.36	-1849.86	 3744.98
     19.3390	 4188.00	 4319.43	-1794.93	 3746.65
     19.3650	 4302.00	 4319.54	-1681.04	 3748.32
     19.3910	 4259.00	 4319.70	-1724.20	 3750.00
     19.4170	 4228.00	 4319.92	-1755.42	 3751.67
     19.4430	 4251.00	 4320.18	-1732.68	 3753.34
     19.4690	 4276.00	 4320.49	-1707.99	 3755.01
     19.4950	 4234.00	 4320.85	-1750.35	 3756.68
     19.5210	 4263.00	 4321.25	-1721.75	 3758.35
     19.5470	 4225.00	 4321.70	-1760.20	 3760.02
     19.5730	 4119.00	 4322.19	-1866.69	 3761.69
     19.5990	 4157.00	 4322.72	-1829.22	 3763.36
     19.6250	 4186.00	 4323.29	-1800.79	 3765.03
     19.6510	 4239.00	 4323.91	-1748.41	 3766.70
     19.6770	 4313.00	 4324.56	-1675.06	 3768.37
     19.7030	 4297.00	 4325.24	-1691.74	 3770.04
     19.7290	 4222.00	 4325.97	-1767.47	 3771.71
     19.7550	 4247.00	 4326.72	-1743.22	 3773.38
     19.7810	 4404.00	 4327.51	-1587.01	 3775.05
     19.8070	 4371.00	 4328.34	-1620.84	 3776.72
     19.8330	 4315.00	 4329.19	-1677.69	 3778.39
     19.8590	 4266.00	 4330.08	-1727.58	 3780.06
     19.8850	 4373.00	 4330.99	-1621.49	 3781.73
     19.9110	 4342.00	 4331.93	-1653.43	 3783.40
     19.9370	 4255.00	 4332.90	-1741.40	 3785.07
     19.9630	 4284.00	 4333.89	-1713.39	 3786.74
     19.9890	 4376.00	 4334.91	-1622.41	 3788.41
     20.0150	 4329.00	 4335.95	-1670.45	 3790.08
     20.0410	 4332.00	 4337.02	-1668.52	 3791.75
     20.0670	 4375.00	 4338.11	-1626.61	 3793.42
     20.0930	 4319.00	 4339.22	-1683.72	 3795.09
     20.1190	 4404.00	 4340.35	-1599.85	 3796.76
     20.1450	 4279.00	 4341.50	-1726.00	 3798.43
     20.1710	 4367.00	 4342.67	-1639.17	 3800.10
     20.1970	 4374.00	 4343.86	-1633.36	 3801.77
     20.2230	 4294.00	 4345.07	-1714.57	 3803.44
     20.2490	 4384.00	 4346.29	-1625.79	 3805.11
     20.2750	 4394.00	 4347.54	-1617.04	 3806.78
     20.3010	 4356.00	 4348.80	-1656.30	 3808.45
     20.3270	 4392.00	 4350.07	-1621.57	 3810.12
     20.3530	 4375.00	 4351.36	-1639.86	 3811.79
     20.3790	 4357.00	 4352.66	-1659.16	 3813.46
     20.4050	 4386.00	 4353.98	-1631.48	 3815.13
     20.4310	 4475.00	 4355.31	-1543.81	 3816.80
     20.4570	 4403.00	 4356.66	-1617.16	 3818.47
     20.4830	 4464.00	 4358.02	-1557.52	 3820.15
     20.5090	 4438.00	 4359.39	-1584.89	 3821.82
     20.5350	 4343.00	 4360.77	-1681.27	 3823.49
     20.5610	 4426.00	 4362.17	-1599.67	 3825.16
     20.5870	 4349.00	 4363.57	-1678.07	 3826.83
     20.6130	 4461.00	 4364.99	-1567.49	 3828.50
     20.6390	 4452.00	 4366.41	-1577.91	 3830.17
     20.6650	 4378.00	 4367.85	-1653.35	 3831.84
     20.6910	 4645.00	 4369.30	-1387.80	 3833.51
     20.7170	 4431.00	 4370.75	-1603.25	 3835.18
     20.7430	 4640.00	 4372.22	-1395.72	 3836.85
     20.7690	 4554.00	 4373.69	-1483.19	 3838.52
     20.7950	 4397.00	 4375.18	-1641.68	 3840.19
     20.8210	 4544.00	 4376.67	-1496.17	 3841.86
     20.8470	 4496.00	 4378.17	-1545.67	 3843.53
     20.8730	 4491.00	 4379.67	-1552.17	 3845.20
     20.8990	 4517.00	 4381.19	-1527.69	 3846.87
     20.9250	 4640.00	 4382.71	-1406.21	 3848.54
     20.9510	 4572.00	 4384.24	-1475.74	 3850.21
     20.9770	 4544.00	 4385.78	-1505.28	 3851.88
     21.0030	 4586.00	 4387.50	-1465.00	 3853.73
     21.0290	 4453.00	 4389.79	-1600.29	 3856.14
     21.0550	 4584.00	 4392.09	-1471.59	 3858.55
     21.0810	 4533.00	 4394.40	-1524.90	 3860.96
     21.1070	 4553.00	 4396.71	-1507.21	 3863.38
     21.1330	 4621.00	 4399.03	-1441.53	 3865.79
     21.1590	 4529.00	 4401.35	-1535.85	 3868.20
     21.1850	 4536.00	 4403.68	-1531.18	 3870.61
     21.2110	 4532.00	 4406.02	-1537.52	 3873.03
     21.2370	 4533.00	 4408.36	-1538.86	 3875.44
     21.2630	 4525.00	 4410.71	-1549.21	 3877.85
     21.2890	 4482.00	 4413.06	-1594.56	 3880.26
     21.3150	 4496.00	 4415.41	-1582.91	 3882.68
     21.3410	 4535.00	 4417.78	-1546.28	 3885.09
     21.3670	 4561.00	 4420.14	-1522.64	 3887.50
     21.3930	 4637.00	 4422.51	-1449.01	 3889.92
     21.4190	 4571.00	 4424.89	-1517.39	 3892.33
     21.4450	 4536.00	 4427.27	-1554.77	 3894.74
     21.4710	 4608.00	 4429.65	-1485.15	 3897.15
     21.4970	 4600.00	 4432.04	-1495.54	 3899.57
     21.5230	 4542.00	 4434.44	-1555.94	 3901.98
     21.5490	 4685.00	 4436.83	-1415.33	 3904.39
     21.5750	 4608.00	 4439.24	-1494.74	 3906.80
     21.6010	 4571.00	 4441.64	-1534.14	 3909.22
     21.6270	 4563.00	 4444.05	-1544.55	 3911.63
     21.6530	 4566.00	 4446.47	-1543.97	 3914.04
     21.6790	 4482.00	 4448.88	-1630.38	 3916.45
     21.7050	 4580.00	 4451.30	-1534.80	 3918.87
     21.7310	 4617.00	 4453.73	-1500.23	 3921.28
     21.7570	 4556.00	 4456.16	-1563.66	 3923.69
     21.7830	 4623.00	 4458.59	-1499.09	 3926.10
     21.8090	 4649.00	 4461.02	-1475.52	 3928.52
     21.8350	 4631.00	 4463.46	-1495.96	 3930.93
     21.8610	 4568.00	 4465.91	-1561.41	 3933.34
     21.8870	 4542.00	 4468.35	-1589.85	 3935.75
     21.9130	 4658.00	 4470.80	-1476.30	 3938.17
     21.9390	 4629.00	 4473.25	-1507.75	 3940.58
     21.9650	 4550.00	 4475.71	-1589.21	 3942.99
     21.9910	 4632.00	 4478.17	-1509.67	 3945.40
     22.0170	 4657.00	 4480.63	-1487.13	 3947.82
     22.0430	 4598.00	 4483.09	-1548.59	 3950.23
     22.0690	 4584.00	 4485.56	-1565.06	 3952.64
     22.0950	 4643.00	 4488.03	-1508.53	 3955.05
     22.1210	 4669.00	 4490.51	-1485.01	 3957.47
     22.1470	 4595.00	 4492.99	-1561.49	 3959.88
     22.1730	 4643.00	 4495.47	-1515.97	 3962.29
     22.1990	 4709.00	 4497.95	-1452.45	 3964.70
     22.2250	 4624.00	 4500.44	-1539.94	 3967.12
     22.2510	 4617.00	 4502.93	-1549.43	 3969.53
     22.2770	 4655.00	 4505.42	-1513.92	 3971.94
     22.3030	 4682.00	 4507.91	-1489.41	 3974.35
     22.3290	 4705.00	 4510.41	-1468.91	 3976.77
     22.3550	 4630.00	 4512.91	-1546.41	 3979.18
     22.3810	 4539.00	 4515.41	-1639.91	 3981.59
     22.4070	 4521.00	 4517.92	-1660.42	 3984.00
     22.4330	 4642.00	 4520.43	-1541.93	 3986.42
     22.4590	 4694.00	 4522.94	-1492.44	 3988.83
     22.4850	 4680.00	 4525.45	-1508.95	 3991.24
     22.5110	 4668.00	 4527.97	-1523.47	 3993.65
     22.5370	 4621.00	 4530.48	-1572.98	 3996.07
     22.5630	 4602.00	 4533.01	-1594.51	 3998.48
     22.5890	 4605.00	 4535.53	-1594.03	 4000.89
     22.6150	 4663.00	 4538.06	-1538.56	 4003.31
     22.6410	 4584.00	 4540.59	-1620.09	 4005.72
     22.6670	 4595.00	 4543.12	-1611.62	 4008.13
     22.6930	 4678.00	 4545.65	-1531.15	 4010.54
     22.7190	 4595.00	 4548.19	-1616.69	 4012.96
     22.7450	 4566.00	 4550.73	-1648.23	 4015.37
     22.7710	 4733.00	 4551.82	-1482.32	 4016.33
     22.7970	 4702.00	 4551.70	-1513.20	 4016.07
     22.8230	 4662.00	 4551.57	-1553.07	 4015.81
     22.8490	 4666.00	 4551.45	-1548.95	 4015.55
     22.8750	 4687.00	 4551.33	-1527.83	 4015.29
     22.9010	 4670.00	 4551.22	-1544.72	 4015.04
     22.9270	 4669.00	 4551.10	-1545.60	 4014.78
     22.9530	 4631.00	 4550.99	-1583.49	 4014.52
     22.9790	 4618.00	 4550.88	-1596.38	 4014.26
     23.0050	 4717.00	 4550.78	-1497.28	 4014.00
     23.0310	 4582.00	 4550.67	-1632.17	 4013.74
     23.0570	 4644.00	 4550.57	-1570.07	 4013.48
     23.0830	 4685.00	 4550.48	-1528.98	 4013.22
     23.1090	 4590.00	 4550.38	-1623.88	 4012.96
     23.1350	 4634.00	 4550.29	-1579.79	 4012.70
     23.1610	 4742.00	 4550.20	-1471.70	 4012.44
     23.1870	 4632.00	 4550.11	-1581.61	 4012.18
     23.2130	 4566.00	 4550.03	-1647.53	 4011.92
     23.2390	 4564.00	 4549.94	-1649.44	 4011.66
     23.2650	 4678.00	 4549.86	-1535.36	 4011.41
     23.2910	 4622.00	 4549.79	-1591.29	 4011.15
     23.3170	 4563.00	 4549.71	-1650.21	 4010.89
     23.3430	 4702.00	 4549.64	-1511.14	 4010.63
     23.3690	 4635.00	 4549.57	-1578.07	 4010.37
     23.3950	 4616.00	 4549.51	-1597.01	 4010.11
     23.4210	 4638.00	 4549.45	-1574.95	 4009.85
     23.4470	 4532.00	 4549.39	-1680.89	 4009.59
     23.4730	 4528.00	 4549.33	-1684.83	 4009.33
     23.4990	 4645.00	 4549.28	-1567.78	 4009.07
     23.5250	 4602.00	 4549.22	-1610.72	 4008.81
     23.5510	 4559.00	 4549.18	-1653.68	 4008.55
     23.5770	 4736.00	 4549.13	-1476.63	 4008.29
     23.6030	 4658.00	 4549.09	-1554.59	 4008.03
     23.6290	 4507.00	 4549.05	-1705.55	 4007.78
     23.6550	 4564.00	 4549.01	-1648.51	 4007.52
     23.6810	 4525.00	 4548.98	-1687.48	 4007.26
     23.7070	 4744.00	 4548.95	-1468.45	 4007.00
     23.7330	 4639.00	 4548.92	-1573.42	 4006.74
     23.7590	 4640.00	 4548.89	-1572.39	 4006.48
     23.7850	 4559.00	 4548.87	-1653.37	 4006.22
     23.8110	 4627.00	 4548.86	-1585.36	 4005.96
     23.8370	 4581.00	 4548.84	-1631.34	 4005.70
     23.8630	 4544.00	 4548.83	-1668.33	 4005.44
     23.8890	 4666.00	 4548.82	-1546.32	 4005.18
     23.9150	 4683.00	 4548.81	-1529.31	 4004.92
     23.9410	 4572.00	 4548.81	-1640.31	 4004.66
     23.9670	 4537.00	 4548.81	-1675.31	 4004.40
     23.9930	 4629.00	 4548.82	-1583.32	 4004.15
     24.0190	 4593.00	 4548.83	-1619.33	 4003.89
     24.0450	 4532.00	 4548.84	-1680.34	 4003.63
     24.0710	 4557.00	 4548.85	-1655.35	 4003.37
     24.0970	 4626.00	 4548.87	-1586.37	 4003.11
     24.1230	 4589.00	 4548.90	-1623.40	 4002.85
     24.1490	 4571.00	 4548.92	-1641.42	 4002.59
     24.1750	 4558.00	 4548.95	-1654.45	 4002.33
     24.2010	 4531.00	 4548.98	-1681.48	 4002.07
     24.2270	 4617.00	 4549.02	-1595.52	 4001.81
     24.2530	 4597.00	 4549.06	-1615.56	 4001.55
     24.2790	 4527.00	 4549.11	-1685.61	 4001.29
     24.3050	 4519.00	 4549.16	-1693.66	 4001.03
     24.3310	 4558.00	 4549.21	-1654.71	 4000.77
     24.3570	 4601.00	 4549.27	-1611.77	 4000.52
     24.3830	 4645.00	 4549.33	-1567.83	 4000.26
     24.4090	 4570.00	 4549.39	-1642.89	 4000.00
     24.4350	 4480.00	 4549.46	-1732.96	 3999.74
     24.4610	 4518.00	 4549.53	-1695.03	 3999.48
     24.4870	 4532.00	 4549.61	-1681.11	 3999.22
     24.5130	 4507.00	 4549.69	-1706.19	 3998.96
     24.5390	 4483.00	 4549.78	-1730.28	 3998.70
     24.5650	 4491.00	 4549.87	-1722.37	 3998.44
     24.5910	 4469.00	 4549.47	-1743.97	 3997.69
     24.6170	 4461.00	 4548.69	-1751.19	 3996.55
     24.6430	 4481.00	 4547.91	-1730.41	 3995.40
     24.6690	 4477.00	 4547.13	-1733.63	 3994.26
     24.6950	 4444.00	 4546.36	-1765.86	 3993.11
     24.7210	 4495.00	 4545.59	-1714.09	 3991.97
     24.7470	 4587.00	 4544.83	-1621.33	 3990.83
     24.7730	 4542.00	 4544.08	-1665.58	 3989.68
     24.7990	 4486.00	 4543.33	-1720.83	 3988.54
     24.8250	 4435.00	 4542.58	-1771.08	 3987.39
     24.8510	 4451.00	 4541.84	-1754.34	 3986.25
     24.8770	 4548.00	 4541.10	-1656.60	 3985.10
     24.9030	 4527.00	 4540.37	-1676.87	 3983.96
     24.9290	 4454.00	 4539.65	-1749.15	 3982.82
     24.9550	 4406.00	 4538.93	-1796.43	 3981.67
     24.9810	 4458.00	 4538.22	-1743.72	 3980.53
     25.0070	 4564.00	 4537.51	-1637.01	 3979.38
     25.0330	 4585.00	 4536.81	-1615.31	 3978.24
     25.0590	 4428.00	 4536.11	-1771.61	 3977.10
     25.0850	 4366.00	 4535.42	-1832.92	 3975.95
     25.1110	 4392.00	 4534.74	-1806.24	 3974.81
     25.1370	 4442.00	 4534.06	-1755.56	 3973.66
     25.1630	 4403.00	 4533.39	-1793.89	 3972.52
     25.1890	 4399.00	 4532.73	-1797.23	 3971.37
     25.2150	 4457.00	 4532.07	-1738.57	 3970.23
     25.2410	 4451.00	 4531.42	-1743.92	 3969.09
     25.2670	 4410.00	 4530.77	-1784.27	 3967.94
     25.2930	 4458.00	 4530.13	-1735.63	 3966.80
     25.3190	 4478.00	 4529.50	-1715.00	 3965.65
     25.3450	 4434.00	 4528.88	-1758.38	 3964.51
     25.3710	 4478.00	 4528.27	-1713.77	 3963.37
     25.3970	 4496.00	 4527.66	-1695.16	 3962.22
     25.4230	 4471.00	 4527.06	-1719.56	 3961.08
     25.4490	 4474.00	 4526.46	-1715.96	 3959.93
