 PMK18    CELL:    8.37284   8.37284   8.37284   90.0000   90.0000   90.0000   SPGR: F d -3 m               TEMP:      0.00
  1   2461     1.54056     1.54443     0.00000     0.00000     0.00000    0
    30     0     0
 2Theta	Yobs	Ycal	Yobs-Ycal	Backg	Posr	(hkl)	K
     15.0210	 5151.00	 5045.82	-2051.04	 4324.60
     15.0470	 5178.00	 5048.22	-2026.45	 4326.68
     15.0730	 5157.00	 5050.63	-2049.85	 4328.77
     15.0990	 5162.00	 5053.04	-2047.27	 4330.86
     15.1250	 5045.00	 5055.46	-2166.69	 4332.95
     15.1510	 5167.00	 5057.89	-2047.12	 4335.04
     15.1770	 5203.00	 5060.32	-2013.55	 4337.13
     15.2030	 5125.00	 5062.77	-2093.99	 4339.21
     15.2290	 5160.00	 5065.21	-2061.44	 4341.30
     15.2550	 5166.00	 5067.67	-2057.90	 4343.39
     15.2810	 5236.00	 5070.13	-1990.36	 4345.48
     15.3070	 5251.00	 5072.60	-1977.83	 4347.57
     15.3330	 5161.00	 5075.08	-2070.31	 4349.66
     15.3590	 5151.00	 5077.57	-2082.80	 4351.74
     15.3850	 5083.00	 5080.07	-2153.29	 4353.83
     15.4110	 5179.00	 5082.57	-2059.80	 4355.92
     15.4370	 5238.00	 5085.08	-2003.31	 4358.01
     15.4630	 5142.00	 5087.61	-2101.83	 4360.10
     15.4890	 5221.00	 5090.14	-2025.37	 4362.19
     15.5150	 5338.00	 5092.68	-1910.91	 4364.27
     15.5410	 5163.00	 5095.24	-2088.46	 4366.36
     15.5670	 5325.00	 5097.80	-1929.03	 4368.45
     15.5930	 5061.00	 5100.38	-2195.60	 4370.54
     15.6190	 5218.00	 5102.96	-2041.19	 4372.63
     15.6450	 5190.00	 5105.56	-2071.78	 4374.72
     15.6710	 5169.00	 5108.17	-2095.39	 4376.80
     15.6970	 5148.00	 5110.79	-2119.01	 4378.89
     15.7230	 5155.00	 5113.42	-2114.65	 4380.98
     15.7490	 5133.00	 5116.07	-2139.30	 4383.07
     15.7750	 5199.00	 5118.73	-2075.96	 4385.16
     15.8010	 5197.00	 5121.41	-2080.63	 4387.25
     15.8270	 5103.00	 5124.09	-2177.32	 4389.33
     15.8530	 5168.00	 5126.80	-2115.02	 4391.42
     15.8790	 5190.00	 5129.52	-2095.74	 4393.51
     15.9050	 5321.00	 5132.25	-1967.48	 4395.60
     15.9310	 5172.00	 5135.40	-2119.63	 4397.69
     15.9570	 5091.00	 5138.17	-2203.40	 4399.78
     15.9830	 5284.00	 5140.96	-2013.19	 4401.86
     16.0090	 5166.00	 5143.77	-2133.99	 4403.95
     16.0350	 5230.00	 5146.59	-2072.82	 4406.04
     16.0610	 5325.00	 5149.63	-1980.86	 4408.13
     16.0870	 5221.00	 5153.82	-2089.05	 4411.54
     16.1130	 5216.00	 5159.51	-2099.73	 4416.43
     16.1390	 5249.00	 5165.21	-2072.44	 4421.31
     16.1650	 5274.00	 5170.94	-2053.17	 4426.20
     16.1910	 5142.00	 5176.69	-2190.92	 4431.09
     16.2170	 5173.00	 5182.47	-2165.69	 4435.97
     16.2430	 5281.00	 5188.27	-2063.49	 4440.86
     16.2690	 5189.00	 5194.09	-2161.32	 4445.75
     16.2950	 5160.00	 5199.95	-2196.17	 4450.63
     16.3210	 5274.00	 5205.83	-2088.05	 4455.52
     16.3470	 5224.00	 5211.74	-2143.96	 4460.41
     16.3730	 5254.00	 5217.68	-2119.91	 4465.29
     16.3990	 5314.00	 5223.65	-2065.88	 4470.18
     16.4250	 5190.00	 5229.65	-2195.88	 4475.07
     16.4510	 5313.00	 5235.69	-2078.92	 4479.95
     16.4770	 5341.00	 5241.76	-2056.99	 4484.84
     16.5030	 5305.00	 5247.87	-2099.10	 4489.73
     16.5290	 5394.00	 5254.02	-2016.24	 4494.61
     16.5550	 5384.00	 5260.20	-2032.42	 4499.50
     16.5810	 5241.00	 5266.42	-2181.65	 4504.39
     16.6070	 5205.00	 5272.69	-2223.91	 4509.27
     16.6330	 5148.00	 5279.00	-2287.22	 4514.16
     16.6590	 5208.00	 5285.35	-2233.58	 4519.05
     16.6850	 5366.00	 5291.75	-2081.98	 4523.93
     16.7110	 5354.00	 5298.20	-2100.43	 4528.82
     16.7370	 5334.00	 5304.70	-2126.92	 4533.71
     16.7630	 5393.00	 5311.25	-2074.48	 4538.59
     16.7890	 5344.00	 5317.86	-2130.08	 4543.48
     16.8150	 5322.00	 5324.52	-2158.74	 4548.37
     16.8410	 5415.00	 5331.24	-2072.46	 4553.25
     16.8670	 5426.00	 5338.02	-2068.24	 4558.14
     16.8930	 5433.00	 5344.86	-2068.09	 4563.02
     16.9190	 5411.00	 5353.39	-2098.62	 4569.54
     16.9450	 5290.00	 5365.05	-2231.28	 4579.11
     16.9710	 5356.00	 5376.79	-2177.01	 4588.69
     16.9970	 5527.00	 5388.59	-2017.82	 4598.26
     17.0230	 5487.00	 5400.47	-2069.70	 4607.84
     17.0490	 5428.00	 5412.43	-2140.66	 4617.41
     17.0750	 5432.00	 5424.47	-2148.69	 4626.99
     17.1010	 5367.00	 5436.59	-2225.81	 4636.57
     17.1270	 5485.00	 5448.79	-2120.02	 4646.14
     17.1530	 5541.00	 5461.08	-2076.31	 4655.72
     17.1790	 5520.00	 5473.46	-2109.69	 4665.29
     17.2050	 5622.00	 5485.93	-2020.16	 4674.87
     17.2310	 5520.00	 5498.50	-2134.73	 4684.45
     17.2570	 5556.00	 5511.16	-2111.39	 4694.02
     17.2830	 5526.00	 5523.93	-2154.15	 4703.60
     17.3090	 5539.00	 5536.79	-2154.02	 4713.17
     17.3350	 5569.00	 5549.76	-2136.99	 4722.75
     17.3610	 5587.00	 5562.83	-2132.06	 4732.33
     17.3870	 5583.00	 5576.01	-2149.24	 4741.90
     17.4130	 5547.00	 5589.30	-2198.52	 4751.48
     17.4390	 5569.00	 5602.69	-2189.92	 4761.05
     17.4650	 5554.00	 5616.20	-2218.42	 4770.63
     17.4910	 5556.00	 5629.81	-2230.03	 4780.21
     17.5170	 5621.00	 5643.52	-2178.75	 4789.78
     17.5430	 5667.00	 5657.35	-2146.57	 4799.36
     17.5690	 5550.00	 5671.27	-2277.49	 4808.93
     17.5950	 5689.00	 5685.29	-2152.52	 4818.51
     17.6210	 5794.00	 5699.41	-2061.64	 4828.09
     17.6470	 5628.00	 5713.62	-2241.85	 4837.66
     17.6730	 5633.00	 5727.92	-2251.14	 4847.24
     17.6990	 5639.00	 5742.28	-2259.51	 4856.81
     17.7250	 5714.00	 5756.72	-2198.94	 4866.39
     17.7510	 5632.00	 5771.21	-2295.43	 4875.97
     17.7770	 5606.00	 5785.74	-2335.97	 4885.54
     17.8030	 5767.00	 5798.60	-2187.83	 4893.42
     17.8290	 5796.00	 5809.78	-2170.01	 4899.60
     17.8550	 5813.00	 5820.96	-2164.19	 4905.78
     17.8810	 5772.00	 5832.11	-2216.34	 4911.96
     17.9070	 5676.00	 5843.22	-2323.45	 4918.14
     17.9330	 5737.00	 5854.27	-2273.49	 4924.32
     17.9590	 5729.00	 5865.22	-2292.45	 4930.50
     17.9850	 5749.00	 5876.06	-2283.29	 4936.67
     18.0110	 5644.00	 5886.76	-2398.98	 4942.85
     18.0370	 5800.00	 5897.28	-2253.51	 4949.03
     18.0630	 5694.00	 5907.61	-2369.84	 4955.21
     18.0890	 5740.00	 5917.72	-2333.94	 4961.39
     18.1150	 5792.00	 5927.56	-2291.79	 4967.57
     18.1410	 5786.00	 5937.13	-2307.36	 4973.75
     18.1670	 5734.00	 5946.39	-2368.61	 4979.93
     18.1930	 5741.00	 5955.31	-2370.54	 4986.11
     18.2190	 5916.00	 5963.88	-2204.10	 4992.29
     18.2450	 5814.00	 5972.06	-2314.29	 4998.47
     18.2710	 5707.00	 5979.86	-2429.08	 5004.65
     18.2970	 5751.00	 5987.24	-2392.46	 5010.83
     18.3230	 5750.00	 5994.20	-2400.43	 5017.01
     18.3490	 5808.00	 6000.73	-2348.96	 5023.19
     18.3750	 5972.00	 6006.84	-2191.06	 5029.36
     18.4010	 5849.00	 6012.52	-2319.74	 5035.54
     18.4270	 5953.00	 6017.77	-2220.99	 5041.72
     18.4530	 5919.00	 6022.61	-2259.83	 5047.90
     18.4790	 5797.00	 6027.05	-2386.27	 5054.08
     18.5050	 5915.00	 6031.10	-2272.33	 5060.26
     18.5310	 5993.00	 6034.79	-2198.02	 5066.44
     18.5570	 5938.00	 6038.14	-2256.37	 5072.62
     18.5830	 5869.00	 6041.17	-2328.40	 5078.80
     18.6090	 5955.00	 6043.92	-2245.14	 5084.98
     18.6350	 5962.00	 6046.39	-2240.62	 5091.16
     18.6610	 5943.00	 6048.64	-2261.86	 5097.34
     18.6870	 5824.00	 6050.67	-2382.90	 5103.52
     18.7130	 5946.00	 6052.53	-2262.76	 5109.70
     18.7390	 5878.00	 6054.24	-2332.46	 5115.88
     18.7650	 5829.00	 6055.82	-2383.05	 5122.06
     18.7910	 5858.00	 6057.31	-2355.53	 5128.23
     18.8170	 5929.00	 6058.72	-2285.95	 5134.41
     18.8430	 5932.00	 6060.08	-2284.31	 5140.59
     18.8690	 5949.00	 6061.42	-2268.64	 5146.77
     18.8950	 6018.00	 6062.74	-2200.97	 5152.95
     18.9210	 6197.00	 6064.07	-2023.30	 5159.13
     18.9470	 6108.00	 6065.43	-2113.66	 5165.31
     18.9730	 6088.00	 6066.83	-2135.05	 5171.49
     18.9990	 6074.00	 6068.27	-2150.50	 5177.67
     19.0250	 6038.00	 6069.79	-2188.01	 5183.85
     19.0510	 6025.00	 6071.37	-2202.60	 5190.03
     19.0770	 6076.00	 6073.04	-2153.26	 5196.21
     19.1030	 6029.00	 6074.79	-2202.01	 5202.39
     19.1290	 6021.00	 6076.64	-2211.86	 5208.57
     19.1550	 5972.00	 6075.24	-2259.46	 5211.40
     19.1810	 5988.00	 6073.43	-2241.66	 5213.73
     19.2070	 5882.00	 6071.74	-2345.96	 5216.06
     19.2330	 5923.00	 6070.15	-2303.37	 5218.39
     19.2590	 5979.00	 6068.66	-2245.89	 5220.72
     19.2850	 6037.00	 6067.29	-2186.52	 5223.05
     19.3110	 6020.00	 6066.02	-2202.25	 5225.38
     19.3370	 5936.00	 6064.87	-2285.09	 5227.71
     19.3630	 6015.00	 6063.81	-2205.04	 5230.04
     19.3890	 6004.00	 6062.87	-2215.09	 5232.38
     19.4150	 6006.00	 6062.03	-2212.25	 5234.71
     19.4410	 6058.00	 6061.29	-2159.51	 5237.04
     19.4670	 6132.00	 6060.65	-2084.87	 5239.37
     19.4930	 6151.00	 6060.11	-2065.33	 5241.70
     19.5190	 6076.00	 6059.66	-2139.89	 5244.03
     19.5450	 6183.00	 6059.31	-2032.53	 5246.36
     19.5710	 6228.00	 6059.04	-1987.27	 5248.69
     19.5970	 6175.00	 6058.87	-2040.10	 5251.02
     19.6230	 6162.00	 6058.78	-2053.01	 5253.35
     19.6490	 6116.00	 6058.78	-2099.00	 5255.68
     19.6750	 6062.00	 6058.85	-2153.08	 5258.01
     19.7010	 5978.00	 6059.01	-2237.24	 5260.34
     19.7270	 6050.00	 6059.24	-2165.46	 5262.67
     19.7530	 6123.00	 6059.54	-2092.77	 5265.00
     19.7790	 6093.00	 6059.91	-2123.14	 5267.33
     19.8050	 6127.00	 6060.36	-2089.58	 5269.66
     19.8310	 6095.00	 6060.86	-2122.09	 5271.99
     19.8570	 6008.00	 6061.43	-2209.66	 5274.33
     19.8830	 6024.00	 6062.07	-2194.29	 5276.66
     19.9090	 6023.00	 6062.76	-2195.98	 5278.99
     19.9350	 6059.00	 6063.51	-2160.73	 5281.32
     19.9610	 6011.00	 6064.31	-2209.54	 5283.65
     19.9870	 6018.00	 6065.17	-2203.39	 5285.98
     20.0130	 6072.00	 6066.08	-2150.30	 5288.31
     20.0390	 5982.00	 6067.03	-2241.26	 5290.64
     20.0650	 6007.00	 6068.04	-2217.27	 5292.97
     20.0910	 6087.00	 6069.09	-2138.32	 5295.30
     20.1170	 6121.00	 6070.19	-2105.41	 5297.63
     20.1430	 6008.00	 6071.32	-2219.55	 5299.96
     20.1690	 6029.00	 6072.50	-2199.73	 5302.29
     20.1950	 6033.00	 6073.72	-2196.95	 5304.62
     20.2210	 6087.00	 6074.98	-2144.20	 5306.95
     20.2470	 6016.00	 6076.27	-2216.50	 5309.28
     20.2730	 6115.00	 6077.60	-2118.83	 5311.61
     20.2990	 6048.00	 6078.97	-2187.19	 5313.94
     20.3250	 6012.00	 6080.36	-2224.59	 5316.27
     20.3510	 6149.00	 6081.79	-2089.02	 5318.61
     20.3770	 6108.00	 6083.88	-2132.11	 5320.94
     20.4030	 6179.00	 6085.37	-2062.60	 5323.27
     20.4290	 6028.00	 6086.89	-2215.12	 5325.60
     20.4550	 5981.00	 6088.44	-2263.66	 5327.93
     20.4810	 6130.00	 6090.01	-2116.24	 5330.26
     20.5070	 6107.00	 6091.61	-2140.84	 5332.59
     20.5330	 6092.00	 6093.55	-2157.78	 5334.92
     20.5590	 5996.00	 6095.20	-2255.42	 5337.25
     20.5850	 6097.00	 6096.87	-2156.10	 5339.58
     20.6110	 5978.00	 6098.56	-2276.79	 5341.91
     20.6370	 6041.00	 6100.28	-2215.51	 5344.24
     20.6630	 6090.00	 6102.02	-2168.24	 5346.57
     20.6890	 6058.00	 6103.77	-2202.00	 5348.90
     20.7150	 6083.00	 6105.55	-2178.78	 5351.23
     20.7410	 6240.00	 6107.35	-2023.57	 5353.56
     20.7670	 6146.00	 6109.16	-2119.39	 5355.89
     20.7930	 6108.00	 6110.99	-2159.22	 5358.23
     20.8190	 6338.00	 6112.84	-1931.07	 5360.56
     20.8450	 6230.00	 6114.71	-2040.94	 5362.89
     20.8710	 6139.00	 6116.59	-2133.82	 5365.22
     20.8970	 6168.00	 6118.49	-2106.72	 5367.55
     20.9230	 6191.00	 6120.40	-2085.63	 5369.88
     20.9490	 6280.00	 6122.33	-1998.56	 5372.21
     20.9750	 6325.00	 6124.28	-1955.50	 5374.54
     21.0010	 6108.00	 6126.40	-2174.63	 5377.04
     21.0270	 6336.00	 6129.41	-1949.63	 5380.40
     21.0530	 6162.00	 6132.43	-2126.65	 5383.77
     21.0790	 6144.00	 6135.46	-2147.68	 5387.14
     21.1050	 6230.00	 6138.50	-2064.73	 5390.50
     21.1310	 6304.00	 6141.56	-1993.79	 5393.87
     21.1570	 6098.00	 6144.63	-2202.85	 5397.24
     21.1830	 6159.00	 6147.71	-2144.93	 5400.60
     21.2090	 6189.00	 6150.80	-2118.02	 5403.97
     21.2350	 6262.00	 6153.90	-2048.13	 5407.33
     21.2610	 6321.00	 6157.01	-1992.24	 5410.70
     21.2870	 6292.00	 6160.13	-2024.36	 5414.07
     21.3130	 6280.00	 6163.27	-2039.49	 5417.43
     21.3390	 6291.00	 6166.41	-2031.64	 5420.80
     21.3650	 6342.00	 6169.56	-1983.79	 5424.17
     21.3910	 6323.00	 6172.72	-2005.95	 5427.53
     21.4170	 6179.00	 6175.89	-2153.12	 5430.90
     21.4430	 6202.00	 6179.07	-2133.29	 5434.27
     21.4690	 6310.00	 6182.26	-2028.48	 5437.63
     21.4950	 6274.00	 6185.45	-2067.68	 5441.00
     21.5210	 6266.00	 6188.65	-2078.88	 5444.36
     21.5470	 6342.00	 6191.87	-2006.09	 5447.73
     21.5730	 6310.00	 6195.08	-2041.31	 5451.10
     21.5990	 6341.00	 6198.31	-2013.54	 5454.46
     21.6250	 6298.00	 6201.55	-2059.77	 5457.83
     21.6510	 6270.00	 6204.79	-2091.01	 5461.20
     21.6770	 6404.00	 6208.04	-1960.26	 5464.56
     21.7030	 6420.00	 6211.29	-1947.52	 5467.93
     21.7290	 6368.00	 6214.55	-2002.78	 5471.29
     21.7550	 6333.00	 6217.82	-2041.05	 5474.66
     21.7810	 6389.00	 6221.10	-1988.32	 5478.03
     21.8070	 6396.00	 6224.38	-1984.61	 5481.39
     21.8330	 6401.00	 6227.67	-1982.90	 5484.76
     21.8590	 6336.00	 6230.96	-2051.19	 5488.13
     21.8850	 6274.00	 6234.26	-2116.49	 5491.49
     21.9110	 6295.00	 6237.57	-2098.80	 5494.86
     21.9370	 6305.00	 6240.88	-2092.11	 5498.23
     21.9630	 6294.00	 6244.20	-2106.43	 5501.59
     21.9890	 6268.00	 6247.52	-2135.75	 5504.96
     22.0150	 6279.00	 6250.85	-2128.08	 5508.33
     22.0410	 6362.00	 6254.19	-2048.41	 5511.69
     22.0670	 6443.00	 6257.53	-1970.75	 5515.06
     22.0930	 6359.00	 6260.87	-2058.10	 5518.42
     22.1190	 6303.00	 6264.22	-2117.45	 5521.79
     22.1450	 6437.00	 6267.58	-1986.80	 5525.16
     22.1710	 6470.00	 6270.94	-1957.17	 5528.52
     22.1970	 6375.00	 6274.30	-2055.53	 5531.89
     22.2230	 6342.00	 6277.67	-2091.90	 5535.26
     22.2490	 6428.00	 6281.05	-2009.28	 5538.62
     22.2750	 6483.00	 6284.43	-1957.66	 5541.99
     22.3010	 6411.00	 6287.81	-2033.04	 5545.35
     22.3270	 6351.00	 6291.20	-2096.43	 5548.72
     22.3530	 6320.00	 6294.60	-2130.82	 5552.09
     22.3790	 6363.00	 6297.99	-2091.22	 5555.45
     22.4050	 6455.00	 6301.40	-2002.62	 5558.82
     22.4310	 6506.00	 6304.80	-1955.03	 5562.19
     22.4570	 6424.00	 6308.21	-2040.44	 5565.55
     22.4830	 6434.00	 6311.63	-2033.86	 5568.92
     22.5090	 6411.00	 6315.05	-2060.28	 5572.29
     22.5350	 6349.00	 6318.47	-2125.70	 5575.65
     22.5610	 6396.00	 6321.90	-2082.13	 5579.02
     22.5870	 6439.00	 6325.33	-2042.56	 5582.38
     22.6130	 6408.00	 6328.77	-2077.00	 5585.75
     22.6390	 6360.00	 6332.21	-2128.44	 5589.12
     22.6650	 6330.00	 6335.66	-2161.88	 5592.48
     22.6910	 6504.00	 6339.10	-1991.33	 5595.85
     22.7170	 6495.00	 6342.56	-2003.78	 5599.22
     22.7430	 6423.00	 6346.01	-2079.24	 5602.58
     22.7690	 6447.00	 6347.74	-2056.96	 5604.21
     22.7950	 6358.00	 6347.47	-2145.70	 5603.85
     22.8210	 6436.00	 6347.21	-2067.44	 5603.49
     22.8470	 6384.00	 6346.96	-2119.18	 5603.13
     22.8730	 6380.00	 6346.71	-2122.93	 5602.77
     22.8990	 6441.00	 6346.46	-2061.68	 5602.41
     22.9250	 6371.00	 6346.21	-2131.44	 5602.04
     22.9510	 6255.00	 6345.97	-2247.20	 5601.68
     22.9770	 6428.00	 6345.73	-2073.96	 5601.32
     23.0030	 6505.00	 6345.50	-1996.73	 5600.96
     23.0290	 6411.00	 6345.27	-2090.50	 5600.60
     23.0550	 6407.00	 6345.04	-2094.27	 5600.23
     23.0810	 6493.00	 6344.82	-2008.05	 5599.87
     23.1070	 6358.00	 6344.60	-2142.83	 5599.51
     23.1330	 6324.00	 6344.39	-2176.61	 5599.15
     23.1590	 6566.00	 6344.18	-1934.40	 5598.79
     23.1850	 6415.00	 6343.97	-2085.19	 5598.43
     23.2110	 6313.00	 6343.76	-2186.99	 5598.06
     23.2370	 6322.00	 6343.56	-2177.79	 5597.70
     23.2630	 6263.00	 6343.37	-2236.59	 5597.34
     23.2890	 6419.00	 6343.17	-2080.40	 5596.98
     23.3150	 6455.00	 6342.98	-2044.21	 5596.62
     23.3410	 6374.00	 6342.80	-2125.02	 5596.25
     23.3670	 6422.00	 6342.62	-2076.84	 5595.89
     23.3930	 6529.00	 6342.44	-1969.66	 5595.53
     23.4190	 6476.00	 6342.26	-2022.49	 5595.17
     23.4450	 6352.00	 6342.09	-2146.32	 5594.81
     23.4710	 6348.00	 6341.92	-2150.15	 5594.45
     23.4970	 6470.00	 6341.76	-2027.99	 5594.08
     23.5230	 6555.00	 6341.60	-1942.83	 5593.72
     23.5490	 6432.00	 6341.45	-2065.67	 5593.36
     23.5750	 6339.00	 6341.29	-2158.52	 5593.00
     23.6010	 6513.00	 6341.15	-1984.37	 5592.64
     23.6270	 6590.00	 6341.00	-1907.23	 5592.28
     23.6530	 6408.00	 6340.86	-2089.09	 5591.91
     23.6790	 6433.00	 6340.72	-2063.95	 5591.55
     23.7050	 6451.00	 6340.59	-2045.82	 5591.19
     23.7310	 6539.00	 6340.46	-1957.69	 5590.83
     23.7570	 6377.00	 6340.33	-2119.56	 5590.47
     23.7830	 6533.00	 6340.21	-1963.44	 5590.10
     23.8090	 6485.00	 6340.10	-2011.32	 5589.74
     23.8350	 6387.00	 6339.98	-2109.21	 5589.38
     23.8610	 6357.00	 6339.87	-2139.10	 5589.02
     23.8870	 6415.00	 6339.77	-2080.99	 5588.66
     23.9130	 6450.00	 6339.66	-2045.89	 5588.30
     23.9390	 6345.00	 6339.57	-2150.79	 5587.93
     23.9650	 6469.00	 6339.47	-2026.70	 5587.57
     23.9910	 6380.00	 6339.38	-2115.61	 5587.21
     24.0170	 6367.00	 6339.30	-2128.53	 5586.85
     24.0430	 6480.00	 6339.22	-2015.44	 5586.49
     24.0690	 6449.00	 6339.14	-2046.37	 5586.12
     24.0950	 6506.00	 6339.07	-1989.29	 5585.76
     24.1210	 6367.00	 6339.00	-2128.23	 5585.40
     24.1470	 6406.00	 6338.94	-2089.16	 5585.04
     24.1730	 6409.00	 6338.88	-2086.10	 5584.68
     24.1990	 6363.00	 6338.82	-2132.05	 5584.32
     24.2250	 6271.00	 6338.77	-2224.00	 5583.95
     24.2510	 6337.00	 6338.72	-2157.95	 5583.59
     24.2770	 6399.00	 6338.68	-2095.91	 5583.23
     24.3030	 6436.00	 6338.65	-2058.87	 5582.87
     24.3290	 6414.00	 6338.61	-2080.84	 5582.51
     24.3550	 6356.00	 6338.59	-2138.81	 5582.15
     24.3810	 6390.00	 6338.56	-2104.79	 5581.78
     24.4070	 6309.00	 6338.54	-2185.77	 5581.42
     24.4330	 6304.00	 6338.53	-2190.76	 5581.06
     24.4590	 6389.00	 6338.52	-2105.75	 5580.70
     24.4850	 6426.00	 6338.52	-2068.74	 5580.34
     24.5110	 6417.00	 6338.52	-2077.75	 5579.97
     24.5370	 6338.00	 6338.53	-2156.75	 5579.61
     24.5630	 6343.00	 6338.54	-2151.76	 5579.25
     24.5890	 6383.00	 6337.97	-2111.19	 5578.30
     24.6150	 6378.00	 6336.75	-2114.98	 5576.70
     24.6410	 6361.00	 6335.55	-2130.77	 5575.11
     24.6670	 6317.00	 6334.34	-2173.57	 5573.51
     24.6930	 6245.00	 6333.15	-2244.37	 5571.91
     24.7190	 6282.00	 6331.96	-2206.18	 5570.32
     24.7450	 6300.00	 6330.77	-2187.00	 5568.72
     24.7710	 6243.00	 6329.59	-2242.82	 5567.12
     24.7970	 6302.00	 6328.42	-2182.64	 5565.53
     24.8230	 6433.00	 6327.25	-2050.48	 5563.93
     24.8490	 6434.00	 6326.09	-2048.31	 5562.33
     24.8750	 6311.00	 6324.93	-2170.16	 5560.74
     24.9010	 6315.00	 6323.78	-2165.01	 5559.14
     24.9270	 6292.00	 6322.64	-2186.86	 5557.54
     24.9530	 6368.00	 6321.50	-2109.73	 5555.95
     24.9790	 6327.00	 6320.37	-2149.59	 5554.35
     25.0050	 6296.00	 6319.24	-2179.47	 5552.75
     25.0310	 6294.00	 6318.12	-2180.35	 5551.16
     25.0570	 6315.00	 6317.01	-2158.24	 5549.56
     25.0830	 6288.00	 6315.91	-2184.13	 5547.97
     25.1090	 6277.00	 6314.81	-2194.04	 5546.37
     25.1350	 6265.00	 6313.72	-2204.95	 5544.77
     25.1610	 6300.00	 6312.64	-2168.86	 5543.18
     25.1870	 6373.00	 6311.56	-2094.78	 5541.58
     25.2130	 6352.00	 6310.49	-2114.72	 5539.98
     25.2390	 6350.00	 6309.43	-2115.65	 5538.39
     25.2650	 6418.00	 6308.37	-2046.60	 5536.79
     25.2910	 6295.00	 6307.33	-2168.55	 5535.19
     25.3170	 6309.00	 6306.29	-2153.51	 5533.60
     25.3430	 6315.00	 6305.25	-2146.48	 5532.00
     25.3690	 6427.00	 6304.23	-2033.46	 5530.40
     25.3950	 6436.00	 6303.22	-2023.44	 5528.81
     25.4210	 6342.00	 6302.21	-2116.44	 5527.21
     25.4470	 6325.00	 6301.21	-2132.44	 5525.61
